t,counter,raw_Fz,raw_C3,raw_Cz,raw_C4,raw_Pz,raw_PO7,raw_Oz,raw_PO8,trigger,asr
0.0,1.0,695009.8,448932.2,238525.5,414236.4,750000.0,520102.7,701402.9,310048.6,0.0,0.0
0.0,2.0,618103.6,321979.8,117513.2,253560.1,750000.0,471380.3,684311.7,176529.8,0.0,0.0
0.0,3.0,587563.9,216170.5,144866.9,449685.0,750000.0,531385.3,688486.3,197242.8,0.0,0.0
0.0,4.0,678254.6,145335.2,463539.0,680287.9,750000.0,609456.8,634620.2,229727.7,0.0,0.0
0.0,5.0,750000.0,-38540.0,498311.0,577690.1,750000.0,714799.2,222191.5,396074.7,0.0,0.0
0.0,6.0,750000.0,30154.9,-148437.9,588141.5,750000.0,750000.0,623444.3,741582.1,0.0,0.0
0.0,7.0,750000.0,629472.8,167072.8,750000.0,750000.0,750000.0,750000.0,750000.0,0.0,0.0
0.0,8.0,750000.0,750000.0,641171.1,750000.0,750000.0,750000.0,750000.0,750000.0,0.0,0.0
0.0,9.0,750000.0,750000.0,750000.0,750000.0,750000.0,750000.0,750000.0,750000.0,0.0,0.0
0.0,10.0,750000.0,750000.0,750000.0,750000.0,750000.0,750000.0,750000.0,750000.0,0.0,0.0
0.0,11.0,750000.0,750000.0,750000.0,750000.0,750000.0,750000.0,750000.0,750000.0,0.0,0.0
0.0,12.0,750000.0,750000.0,750000.0,750000.0,750000.0,750000.0,750000.0,750000.0,0.0,0.0
0.0,13.0,750000.0,750000.0,750000.0,750000.0,750000.0,750000.0,750000.0,750000.0,0.0,0.0
0.1,14.0,680138.2,724742.4,750000.0,750000.0,692137.8,700521.5,692104.7,675760.6,0.0,0.0
0.1,15.0,579312.6,617156.3,706648.0,750000.0,589759.5,596791.0,589348.8,575550.6,0.0,0.0
0.1,16.0,496581.1,528865.8,605638.0,750000.0,505690.9,511623.7,505080.5,493278.1,0.0,0.0
0.1,17.0,428001.5,455686.4,521883.7,648793.2,435965.3,440968.6,435258.9,425164.1,0.0,0.0
0.1,18.0,374507.1,398837.2,456563.2,567203.2,381594.3,385981.6,380814.6,372108.1,0.0,0.0
0.1,19.0,349086.2,371749.4,425551.4,528415.0,355802.9,359967.7,354955.2,346890.0,0.0,0.0
0.1,20.0,338151.6,360097.2,412190.5,511581.6,344710.6,348773.3,343827.0,336032.8,0.0,0.0
0.1,21.0,328610.8,349939.3,400511.0,496877.3,335015.7,338986.7,334126.0,326568.9,0.0,0.0
0.1,22.0,319807.7,340585.2,389742.4,483321.0,326070.5,329970.8,325210.0,317837.5,0.0,0.0
0.1,23.0,311757.9,332030.0,379869.1,470964.5,317868.1,321685.4,317027.0,309848.5,0.0,0.0
0.1,24.0,304345.5,324142.4,370758.3,459552.0,310310.4,314039.4,309499.3,302489.6,0.0,0.0
0.1,25.0,297505.8,316848.9,362345.7,449020.5,303324.3,306972.2,302539.6,295686.0,0.0,0.0
0.1,26.0,291143.9,310073.1,354522.5,439223.4,296825.4,300406.0,296070.8,289355.7,0.0,0.0
0.1,27.0,285221.8,303765.9,347238.5,430089.5,290776.6,294294.2,290056.9,283465.1,0.0,0.0
0.1,28.0,279721.1,297913.8,340472.8,421618.5,285156.5,288610.0,284466.4,277992.8,0.0,0.0
0.1,29.0,274604.0,292466.8,334176.3,413740.4,279926.3,283319.4,279264.8,272904.7,0.0,0.0
0.1,30.0,269837.6,287386.6,328308.1,406384.8,275052.8,278388.1,274417.1,268161.8,0.0,0.0
0.1,31.0,265385.7,282643.0,322826.5,399520.9,270503.0,273784.4,269886.7,263736.6,0.0,0.0
0.1,32.0,261201.3,278189.9,317678.2,393080.8,266230.5,269457.7,265630.0,259575.3,0.0,0.0
0.1,33.0,257288.8,274023.0,312861.3,387047.6,262232.8,265410.5,261651.8,255679.6,0.0,0.0
0.1,34.0,253621.2,270125.0,308349.9,381404.2,258490.8,261622.1,257920.9,252030.9,0.0,0.0
0.1,35.0,250148.7,266422.8,304083.5,376071.8,254952.4,258036.4,254392.3,248589.9,0.0,0.0
0.1,36.0,246870.0,262936.6,300054.4,370995.8,251613.4,254666.3,251073.2,245338.8,0.0,0.0
0.1,37.0,243824.5,259696.8,296310.5,366307.7,248510.7,251524.3,247977.8,242311.3,0.0,0.0
0.1,38.0,240966.2,256652.4,292792.7,361898.8,245597.7,248568.8,245068.1,239468.0,0.0,0.0
0.2,39.0,238247.6,253753.1,289450.4,357711.8,242824.4,245754.8,242296.8,236761.7,0.0,0.0
0.2,40.0,235674.0,251014.6,286284.2,353738.1,240196.6,243092.5,239671.6,234199.3,0.0,0.0
0.2,41.0,233248.9,248426.5,283295.7,349985.8,237720.6,240590.6,237204.6,231785.7,0.0,0.0
0.2,42.0,230964.4,245989.7,280480.8,346459.4,235390.3,238229.7,234880.4,229519.2,0.0,0.0
0.2,43.0,228798.8,243678.7,277811.4,343109.4,233176.0,235986.9,232670.1,227357.8,0.0,0.0
0.2,44.0,226764.3,241516.3,275302.1,339949.2,231101.0,233889.4,230599.1,225330.4,0.0,0.0
0.2,45.0,224830.2,239455.3,272918.6,336953.5,229129.4,231892.4,228632.7,223406.9,0.0,0.0
0.2,46.0,222988.0,237491.4,270648.8,334107.3,227247.8,229986.3,226751.7,221569.9,0.0,0.0
0.2,47.0,221240.8,235631.5,268496.5,331403.3,225462.7,228178.7,224966.6,219826.4,0.0,0.0
0.2,48.0,219588.1,233860.8,266461.2,328854.8,223774.8,226465.1,223280.5,218179.1,0.0,0.0
0.2,49.0,218018.2,232186.5,264529.0,326426.8,222174.2,224843.5,221682.7,216615.9,0.0,0.0
0.2,50.0,216518.7,230600.5,262681.8,324076.5,220649.8,223307.7,220170.0,215131.7,0.0,0.0
0.2,51.0,215103.4,229089.0,260936.9,321893.2,219210.1,221847.3,218730.1,213729.7,0.0,0.0
0.2,52.0,213767.1,227663.6,259287.1,319828.5,217849.0,220466.5,217369.5,212405.8,0.0,0.0
0.2,53.0,212496.6,226315.0,257719.9,317847.4,216558.6,219162.6,216085.0,211144.0,0.0,0.0
0.2,54.0,211282.6,225025.5,256221.4,315948.9,215324.5,217913.8,214856.2,209940.8,0.0,0.0
0.2,55.0,210125.7,223793.5,254795.4,314160.5,214146.6,216717.9,213678.4,208794.2,0.0,0.0
0.2,56.0,209029.0,222628.4,253441.2,312457.8,213028.2,215585.1,212558.9,207704.1,0.0,0.0
0.2,57.0,207980.8,221507.4,252149.8,310837.9,211963.2,214506.9,211496.7,206669.2,0.0,0.0
0.2,58.0,206979.3,220439.6,250912.1,309277.0,210941.7,213473.1,210480.7,205675.5,0.0,0.0
0.2,59.0,206042.0,219439.9,249748.9,307800.3,209981.1,212502.7,209523.3,204732.3,0.0,0.0
0.2,60.0,205151.8,218488.7,248643.8,306405.0,209073.2,211585.4,208617.6,203844.9,0.0,0.0
0.2,61.0,204292.2,217569.7,247576.6,305064.6,208194.9,210695.5,207738.8,202990.9,0.0,0.0
0.2,62.0,203472.4,216694.0,246559.9,303798.9,207358.4,209846.0,206901.1,202177.2,0.0,0.0
0.2,63.0,202683.9,215855.2,245585.9,302556.3,206556.2,209035.8,206103.5,201395.9,0.0,0.0
0.3,64.0,201936.5,215065.4,244659.5,301365.8,205794.7,208264.3,205344.0,200652.9,0.0,0.0
0.3,65.0,201247.1,214328.3,243802.8,300292.7,205090.6,207546.0,204635.5,199964.8,0.0,0.0
0.3,66.0,200566.6,213604.4,242961.0,299224.1,204399.9,206847.8,203945.6,199292.1,0.0,0.0
0.3,67.0,199935.6,212930.9,242173.1,298211.4,203755.2,206196.8,203300.9,198663.5,0.0,0.0
0.3,68.0,199315.4,212273.9,241405.4,297242.1,203124.0,205559.9,202671.9,198051.9,0.0,0.0
0.3,69.0,198724.6,211641.2,240669.4,296309.6,202517.8,204944.4,202066.9,197459.4,0.0,0.0
0.3,70.0,198157.9,211037.8,239966.7,295418.2,201939.9,204358.0,201489.6,196893.3,0.0,0.0
0.3,71.0,197623.7,210467.2,239299.8,294579.5,201395.1,203806.4,200947.4,196365.4,0.0,0.0
0.3,72.0,197119.2,209925.6,238667.4,293774.0,200881.2,203286.7,200438.5,195867.1,0.0,0.0
0.3,73.0,196630.0,209399.7,238057.5,292998.0,200384.2,202784.9,199947.1,195383.8,0.0,0.0
0.3,74.0,196166.0,208909.5,237478.9,292254.8,199911.0,202307.3,199476.4,194919.8,0.0,0.0
0.3,75.0,195743.0,208459.2,236945.1,291567.3,199476.2,201864.9,199038.4,194494.2,0.0,0.0
0.3,76.0,195330.1,208020.5,236427.8,290904.4,199056.8,201438.9,198617.5,194085.5,0.0,0.0
0.3,77.0,194933.0,207593.9,235930.2,290275.1,198652.2,201023.5,198207.4,193687.8,0.0,0.0
0.3,78.0,194530.4,207172.4,235433.1,289636.6,198246.7,200614.0,197803.4,193293.8,0.0,0.0
0.3,79.0,194152.3,206776.3,234960.8,289017.8,197864.5,200229.7,197424.6,192921.2,0.0,0.0
0.3,80.0,193801.2,206396.5,234520.0,288459.6,197506.6,199865.7,197067.6,192574.4,0.0,0.0
0.3,81.0,193466.8,206037.8,234094.3,287910.9,197161.1,199518.7,196721.4,192236.1,0.0,0.0
0.3,82.0,193154.6,205701.4,233693.4,287398.2,196838.6,199194.3,196400.5,191921.8,0.0,0.0
0.3,83.0,192844.6,205376.9,233304.1,286898.4,196527.1,198881.8,196091.2,191618.1,0.0,0.0
0.3,84.0,192555.6,205068.6,232938.5,286426.4,196232.0,198581.5,195796.6,191330.4,0.0,0.0
0.3,85.0,192276.2,204775.1,232587.0,285974.3,195948.6,198294.8,195511.1,191050.7,0.0,0.0
0.3,86.0,192001.7,204478.3,232242.0,285532.3,195671.6,198011.8,195234.7,190783.4,0.0,0.0
0.3,87.0,191739.4,204195.3,231909.9,285105.4,195403.2,197738.6,194965.4,190523.0,0.0,0.0
0.3,88.0,191500.8,203943.8,231603.5,284703.1,195157.4,197489.3,194720.2,190278.0,0.0,0.0
0.4,89.0,191269.1,203699.1,231309.8,284316.5,194922.6,197250.9,194485.3,190047.8,0.0,0.0
0.4,90.0,191049.2,203456.7,231030.4,283957.6,194700.9,197024.1,194264.0,189837.8,0.0,0.0
0.4,91.0,190858.8,203247.6,230779.8,283640.6,194503.5,196819.4,194063.1,189644.8,0.0,0.0
0.4,92.0,190641.4,203020.2,230503.7,283277.9,194283.4,196598.3,193845.6,189430.2,0.0,0.0
0.4,93.0,190425.8,202798.7,230230.3,282905.2,194062.7,196380.6,193629.5,189214.0,0.0,0.0
0.4,94.0,190249.5,202608.4,230003.0,282616.2,193881.2,196193.0,193446.1,189037.9,0.0,0.0
0.4,95.0,190071.5,202411.7,229772.4,282309.3,193696.2,196003.8,193266.1,188853.7,0.0,0.0
0.4,96.0,189897.8,202231.1,229549.1,282005.1,193519.3,195828.9,193094.8,188678.1,0.0,0.0
0.4,97.0,189745.7,202075.1,229352.9,281746.5,193369.0,195680.4,192945.3,188533.2,0.0,0.0
0.4,98.0,189600.9,201917.2,229160.6,281490.4,193219.0,195526.3,192793.5,188387.5,0.0,0.0
0.4,99.0,189443.0,201757.6,228959.0,281225.5,193062.1,195370.0,192636.4,188235.0,0.0,0.0
0.4,100.0,189294.7,201596.9,228763.2,280967.8,192908.9,195219.6,192483.8,188088.5,0.0,0.0
0.4,101.0,189148.4,201437.1,228573.8,280728.9,192763.2,195071.9,192336.4,187951.4,0.0,0.0
0.4,102.0,188996.8,201279.5,228383.5,280485.5,192614.5,194922.3,192186.7,187808.5,0.0,0.0
0.4,103.0,188857.1,201134.9,228206.1,280249.6,192475.3,194782.0,192049.4,187672.3,0.0,0.0
0.4,104.0,188749.1,201018.4,228061.8,280054.7,192365.0,194668.3,191939.6,187566.9,0.0,0.0
0.4,105.0,188644.6,200902.9,227920.0,279866.5,192254.1,194553.3,191827.0,187456.2,0.0,0.0
0.4,106.0,188561.4,200810.5,227802.1,279703.6,192168.9,194464.3,191740.7,187373.8,0.0,0.0
0.4,107.0,188439.0,200682.4,227643.8,279470.9,192047.6,194345.6,191627.0,187259.5,0.0,0.0
0.4,108.0,188330.9,200564.6,227500.2,279285.9,191932.0,194225.4,191509.1,187141.6,0.0,0.0
0.4,109.0,188244.3,200471.1,227379.7,279124.8,191838.9,194127.6,191411.9,187045.2,0.0,0.0
0.4,110.0,188154.4,200374.8,227256.7,278950.9,191743.8,194032.0,191316.7,186950.9,0.0,0.0
0.4,111.0,188065.4,200279.8,227134.5,278772.8,191649.5,193940.3,191222.5,186857.7,0.0,0.0
0.4,112.0,187983.4,200189.9,227021.2,278616.2,191563.4,193853.5,191136.6,186774.9,0.0,0.0
0.4,113.0,187900.9,200100.8,226908.9,278464.1,191476.2,193761.5,191049.6,186690.8,0.0,0.0
0.5,114.0,187830.1,200024.2,226810.7,278323.1,191403.2,193687.8,190976.5,186616.4,0.0,0.0
0.5,115.0,187755.8,199946.9,226713.4,278185.8,191332.1,193616.7,190905.3,186545.9,0.0,0.0
0.5,116.0,187674.3,199862.0,226605.5,278042.8,191251.6,193535.5,190822.0,186468.4,0.0,0.0
0.5,117.0,187603.2,199786.0,226510.3,277916.8,191184.9,193467.5,190754.2,186404.1,0.0,0.0
0.5,118.0,187531.9,199716.1,226415.5,277785.8,191117.3,193403.6,190690.1,186336.7,0.0,0.0
0.5,119.0,187463.1,199642.5,226321.6,277661.3,191048.8,193334.2,190621.5,186269.8,0.0,0.0
0.5,120.0,187403.8,199578.0,226239.1,277554.1,190990.6,193273.6,190562.1,186218.6,0.0,0.0
0.5,121.0,187360.7,199526.8,226174.4,277473.1,190947.8,193227.4,190517.5,186182.8,0.0,0.0
0.5,122.0,187275.5,199443.8,226062.7,277301.8,190860.5,193147.0,190436.6,186098.9,0.0,0.0
0.5,123.0,187217.9,199381.4,225980.1,277187.0,190795.7,193079.7,190369.9,186031.0,0.0,0.0
0.5,124.0,187178.1,199329.8,225919.2,277098.2,190752.6,193033.3,190329.4,185989.1,0.0,0.0
0.5,125.0,187155.0,199304.3,225874.0,277014.5,190728.2,193011.2,190307.9,185964.1,0.0,0.0
0.5,126.0,187121.7,199271.4,225821.2,276930.2,190694.3,192978.8,190273.5,185929.7,0.0,0.0
0.5,127.0,187070.9,199212.0,225748.1,276831.3,190638.4,192919.3,190215.0,185872.5,0.0,0.0
0.5,128.0,187013.4,199155.5,225672.5,276729.2,190584.7,192862.6,190160.9,185820.2,0.0,0.0
0.5,129.0,186964.0,199108.6,225604.3,276627.8,190537.5,192817.0,190114.9,185771.0,0.0,0.0
0.5,130.0,186921.4,199061.3,225543.7,276542.3,190495.8,192773.3,190072.4,185731.6,0.0,0.0
0.5,131.0,186883.9,199017.1,225488.8,276464.8,190459.9,192732.9,190034.4,185700.4,0.0,0.0
0.5,132.0,186839.7,198972.6,225429.2,276381.4,190417.2,192687.2,189988.9,185660.8,0.0,0.0
0.5,133.0,186793.2,198928.1,225368.5,276292.5,190373.9,192642.6,189946.5,185617.3,0.0,0.0
0.5,134.0,186761.3,198897.4,225320.2,276215.8,190340.1,192608.2,189914.1,185585.3,0.0,0.0
0.5,135.0,186735.0,198864.3,225275.3,276153.6,190310.7,192577.0,189883.1,185559.0,0.0,0.0
0.5,136.0,186704.8,198832.9,225228.4,276097.3,190281.1,192546.1,189850.6,185532.4,0.0,0.0
0.5,137.0,186651.3,198784.7,225155.4,275974.9,190230.7,192502.8,189806.5,185486.5,0.0,0.0
0.5,138.0,186621.5,198748.9,225107.5,275908.5,190199.2,192471.6,189776.0,185455.9,0.0,0.0
0.6,139.0,186609.9,198735.9,225080.5,275865.9,190185.6,192460.0,189762.8,185438.7,0.0,0.0
0.6,140.0,186583.0,198709.2,225037.5,275793.2,190158.4,192436.4,189737.5,185408.2,0.0,0.0
0.6,141.0,186556.0,198681.2,224994.4,275721.4,190130.3,192408.5,189709.4,185379.8,0.0,0.0
0.6,142.0,186547.4,198672.7,224972.9,275679.4,190122.2,192398.3,189700.4,185370.3,0.0,0.0
0.6,143.0,186532.1,198656.9,224945.8,275627.9,190110.8,192386.7,189689.2,185354.1,0.0,0.0
0.6,144.0,186511.4,198625.7,224912.2,275578.2,190090.7,192361.6,189666.5,185334.9,0.0,0.0
0.6,145.0,186482.2,198595.2,224869.0,275511.1,190061.8,192331.3,189636.6,185305.0,0.0,0.0
0.6,146.0,186456.7,198570.8,224828.5,275449.9,190035.9,192306.5,189611.5,185282.9,0.0,0.0
0.6,147.0,186431.3,198545.4,224789.4,275395.8,190011.6,192281.5,189586.0,185263.4,0.0,0.0
0.6,148.0,186403.6,198522.7,224750.6,275335.8,189987.0,192258.5,189563.4,185237.0,0.0,0.0
0.6,149.0,186378.7,198500.5,224710.8,275274.2,189962.2,192233.6,189538.6,185212.2,0.0,0.0
0.6,150.0,186362.9,198477.1,224680.4,275234.7,189943.7,192211.7,189517.8,185195.5,0.0,0.0
0.6,151.0,186350.9,198462.5,224656.1,275198.5,189930.9,192196.7,189503.4,185187.5,0.0,0.0
0.6,152.0,186319.6,198431.8,224609.3,275105.5,189900.0,192171.6,189478.2,185156.6,0.0,0.0
0.6,153.0,186296.7,198405.3,224574.3,275061.1,189874.9,192143.6,189452.0,185131.5,0.0,0.0
0.6,154.0,186269.0,198377.9,224536.8,275009.4,189846.2,192113.1,189422.4,185102.9,0.0,0.0
0.6,155.0,186257.5,198362.3,224511.1,274964.5,189831.5,192096.1,189407.6,185085.7,0.0,0.0
0.6,156.0,186262.1,198367.8,224499.8,274927.1,189833.3,192100.7,189411.3,185085.1,0.0,0.0
0.6,157.0,186258.9,198362.4,224483.6,274890.1,189831.0,192100.2,189409.7,185083.7,0.0,0.0
0.6,158.0,186254.8,198359.5,224468.1,274862.0,189827.8,192095.3,189405.0,185079.1,0.0,0.0
0.6,159.0,186235.1,198339.2,224433.5,274809.7,189804.7,192071.0,189380.9,185049.7,0.0,0.0
0.6,160.0,186226.6,198327.0,224413.2,274773.4,189796.8,192061.2,189370.8,185041.7,0.0,0.0
0.6,161.0,186216.9,198317.2,224395.8,274741.7,189790.9,192054.3,189363.6,185039.9,0.0,0.0
0.6,162.0,186205.1,198306.6,224376.0,274706.5,189780.6,192042.9,189352.0,185031.4,0.0,0.0
0.6,163.0,186195.3,198297.6,224356.2,274668.4,189770.3,192030.8,189339.7,185020.7,0.0,0.0
0.7,164.0,186198.9,198299.8,224350.1,274652.2,189770.9,192029.6,189337.2,185016.9,0.0,0.0
0.7,165.0,186171.2,198270.5,224310.9,274587.3,189743.6,192003.9,189312.9,184995.0,0.0,0.0
0.7,166.0,186135.4,198234.4,224263.4,274512.6,189709.7,191973.3,189284.2,184969.3,0.0,0.0
0.7,167.0,186138.7,198233.2,224255.9,274503.7,189711.1,191974.6,189285.9,184971.4,0.0,0.0
0.7,168.0,186134.1,198226.9,224241.1,274483.1,189704.3,191967.9,189282.0,184967.0,0.0,0.0
0.7,169.0,186120.7,198214.5,224215.3,274438.9,189686.7,191951.1,189266.6,184952.5,0.0,0.0
0.7,170.0,186101.9,198193.4,224181.6,274379.0,189664.6,191932.6,189246.9,184927.5,0.0,0.0
0.7,171.0,186087.6,198180.4,224154.4,274330.8,189647.9,191918.2,189229.8,184910.6,0.0,0.0
0.7,172.0,186075.8,198167.8,224133.1,274299.4,189636.3,191905.9,189216.4,184901.3,0.0,0.0
0.7,173.0,186070.6,198162.7,224118.1,274270.7,189630.8,191899.8,189211.0,184894.4,0.0,0.0
0.7,174.0,186064.2,198158.6,224103.3,274238.1,189626.2,191894.4,189206.1,184884.7,0.0,0.0
0.7,175.0,186061.2,198158.0,224090.8,274211.6,189623.6,191888.7,189201.5,184883.1,0.0,0.0
0.7,176.0,186066.6,198159.8,224085.2,274195.2,189629.9,191893.7,189206.4,184890.4,0.0,0.0
0.7,177.0,186053.0,198144.3,224062.1,274161.8,189622.7,191887.9,189200.3,184884.7,0.0,0.0
0.7,178.0,186055.8,198144.9,224054.2,274148.4,189623.8,191886.3,189198.8,184884.3,0.0,0.0
0.7,179.0,186039.6,198122.6,224027.3,274102.7,189605.1,191867.6,189182.2,184865.0,0.0,0.0
0.7,180.0,186029.1,198112.5,224004.4,274040.8,189592.8,191858.4,189171.8,184853.0,0.0,0.0
0.7,181.0,186034.2,198117.0,224003.8,274038.6,189598.6,191860.4,189172.8,184858.8,0.0,0.0
0.7,182.0,186029.1,198115.1,223992.9,274018.8,189595.2,191855.6,189169.0,184857.7,0.0,0.0
0.7,183.0,186019.8,198100.8,223974.2,273987.6,189583.0,191840.8,189154.5,184840.3,0.0,0.0
0.7,184.0,186001.7,198086.1,223946.4,273933.1,189566.3,191827.4,189142.0,184823.5,0.0,0.0
0.7,185.0,186002.1,198089.5,223936.5,273907.0,189565.1,191829.3,189141.8,184822.2,0.0,0.0
0.7,186.0,186004.9,198090.8,223929.4,273891.8,189565.9,191831.4,189143.1,184824.6,0.0,0.0
0.7,187.0,185997.4,198080.3,223911.9,273868.0,189556.5,191819.8,189131.4,184819.1,0.0,0.0
0.7,188.0,185986.3,198068.5,223891.5,273833.9,189543.6,191802.8,189116.2,184807.2,0.0,0.0
0.8,189.0,185973.6,198058.9,223869.8,273798.9,189528.0,191785.9,189100.0,184789.4,0.0,0.0
0.8,190.0,185975.2,198059.5,223863.8,273777.7,189529.9,191788.9,189102.7,184789.6,0.0,0.0
0.8,191.0,185982.1,198059.6,223864.6,273778.3,189537.9,191794.5,189108.2,184799.2,0.0,0.0
0.8,192.0,185976.9,198053.3,223851.1,273750.2,189531.8,191787.8,189102.8,184793.6,0.0,0.0
0.8,193.0,185951.9,198032.3,223815.5,273678.0,189507.7,191767.8,189084.2,184773.1,0.0,0.0
0.8,194.0,185962.9,198042.4,223819.6,273673.2,189520.7,191780.9,189096.6,184782.9,0.0,0.0
0.8,195.0,185971.3,198047.5,223820.4,273666.5,189531.1,191790.7,189106.8,184790.3,0.0,0.0
0.8,196.0,185965.7,198043.0,223806.9,273645.6,189526.4,191784.8,189097.8,184782.0,0.0,0.0
0.8,197.0,185959.7,198037.3,223791.4,273612.1,189521.9,191780.1,189093.3,184777.5,0.0,0.0
0.8,198.0,185944.3,198026.1,223767.9,273570.6,189509.6,191768.9,189083.3,184767.5,0.0,0.0
0.8,199.0,185937.2,198021.3,223751.1,273542.7,189502.6,191762.2,189078.1,184760.2,0.0,0.0
0.8,200.0,185938.1,198023.1,223741.9,273525.5,189501.9,191763.2,189077.8,184761.0,0.0,0.0
0.8,201.0,185934.6,198018.6,223730.4,273510.1,189499.6,191762.7,189076.5,184763.0,0.0,0.0
0.8,202.0,185928.6,198009.0,223714.9,273487.1,189490.8,191752.7,189068.0,184758.1,0.0,0.0
0.8,203.0,185924.9,198004.5,223704.0,273463.2,189485.9,191748.0,189064.3,184752.5,0.0,0.0
0.8,204.0,185920.8,198000.7,223690.7,273433.2,189478.1,191740.8,189057.1,184741.7,0.0,0.0
0.8,205.0,185921.5,197999.4,223682.8,273414.9,189476.0,191737.3,189051.9,184739.5,0.0,0.0
0.8,206.0,185919.0,197991.4,223675.0,273410.9,189474.0,191729.6,189045.1,184742.8,0.0,0.0
0.8,207.0,185912.1,197981.1,223660.1,273378.9,189468.1,191727.4,189043.7,184733.5,0.0,0.0
0.8,208.0,185915.9,197984.2,223654.1,273341.5,189467.0,191727.5,189045.6,184727.7,0.0,0.0
0.8,209.0,185915.4,197984.0,223646.8,273322.0,189465.7,191723.3,189043.8,184724.5,0.0,0.0
0.8,210.0,185902.7,197975.5,223624.7,273281.6,189453.7,191713.3,189031.4,184712.8,0.0,0.0
0.8,211.0,185894.8,197965.6,223609.6,273262.4,189448.6,191706.6,189024.7,184711.2,0.0,0.0
0.8,212.0,185886.7,197958.0,223594.7,273243.4,189442.3,191699.6,189016.1,184707.9,0.0,0.0
0.8,213.0,185882.0,197954.8,223583.9,273221.9,189440.1,191697.6,189011.8,184704.3,0.0,0.0
0.9,214.0,185890.3,197967.0,223586.1,273213.3,189451.3,191709.6,189022.3,184713.7,0.0,0.0
0.9,215.0,185881.2,197961.6,223572.7,273183.2,189447.2,191708.9,189018.2,184709.4,0.0,0.0
0.9,216.0,185879.6,197957.2,223564.4,273166.3,189446.5,191708.0,189018.2,184711.8,0.0,0.0
0.9,217.0,185882.7,197962.3,223560.2,273150.5,189449.6,191712.8,189025.0,184718.1,0.0,0.0
0.9,218.0,185874.4,197954.8,223544.2,273122.5,189439.0,191702.2,189017.2,184706.1,0.0,0.0
0.9,219.0,185871.4,197953.5,223532.1,273092.5,189432.6,191696.0,189011.4,184694.1,0.0,0.0
0.9,220.0,185873.8,197956.3,223526.0,273077.9,189432.9,191695.5,189009.5,184692.0,0.0,0.0
0.9,221.0,185883.8,197956.4,223527.4,273088.2,189440.4,191698.1,189013.1,184701.4,0.0,0.0
0.9,222.0,185863.4,197933.5,223497.0,273034.1,189420.3,191681.1,188997.8,184686.6,0.0,0.0
0.9,223.0,185865.8,197940.4,223492.9,273019.8,189421.9,191681.8,188998.7,184687.5,0.0,0.0
0.9,224.0,185867.6,197940.6,223489.4,273007.6,189425.5,191682.7,189003.2,184687.5,0.0,0.0
0.9,225.0,185866.0,197938.9,223481.1,272981.3,189425.1,191683.7,189002.2,184684.9,0.0,0.0
0.9,226.0,185865.0,197940.1,223472.8,272960.3,189423.3,191682.4,188998.1,184682.9,0.0,0.0
0.9,227.0,185862.0,197938.4,223464.5,272943.3,189421.1,191680.3,188995.3,184682.4,0.0,0.0
0.9,228.0,185857.0,197932.9,223453.5,272920.4,189415.9,191674.3,188990.1,184676.3,0.0,0.0
0.9,229.0,185852.0,197929.4,223441.2,272896.2,189411.2,191670.1,188987.2,184672.3,0.0,0.0
0.9,230.0,185857.7,197937.8,223441.9,272893.3,189419.9,191677.2,188996.9,184685.6,0.0,0.0
0.9,231.0,185844.1,197919.2,223417.0,272858.9,189401.8,191660.8,188979.0,184663.9,0.0,0.0
0.9,232.0,185834.4,197906.0,223396.3,272828.8,189388.5,191647.8,188965.5,184650.3,0.0,0.0
0.9,233.0,185837.9,197914.3,223394.3,272814.5,189395.5,191657.4,188975.6,184660.4,0.0,0.0
0.9,234.0,185844.4,197927.5,223395.9,272805.8,189405.8,191669.2,188987.8,184673.3,0.0,0.0
0.9,235.0,185841.1,197921.9,223386.4,272788.7,189403.4,191663.7,188982.4,184668.7,0.0,0.0
0.9,236.0,185831.4,197908.4,223373.4,272782.7,189396.2,191650.2,188969.5,184663.0,0.0,0.0
0.9,237.0,185820.2,197899.5,223355.1,272735.4,189388.0,191646.5,188966.9,184656.8,0.0,0.0
0.9,238.0,185828.8,197913.1,223359.7,272721.9,189402.1,191662.5,188984.2,184670.4,0.0,0.0
1.0,239.0,185840.0,197921.4,223363.6,272722.7,189411.2,191668.9,188991.7,184675.7,0.0,0.0
1.0,240.0,185839.6,197919.9,223354.8,272709.1,189405.3,191663.1,188983.4,184666.9,0.0,0.0
1.0,241.0,185834.0,197912.3,223340.2,272684.4,189398.0,191656.9,188974.8,184659.6,0.0,0.0
1.0,242.0,185821.9,197898.1,223319.0,272650.2,189387.4,191648.2,188965.3,184654.1,0.0,0.0
1.0,243.0,185826.3,197903.2,223314.0,272630.6,189386.4,191650.1,188964.2,184651.2,0.0,0.0
1.0,244.0,185824.0,197901.4,223304.1,272608.4,189380.8,191647.2,188961.8,184643.6,0.0,0.0
1.0,245.0,185822.4,197902.7,223296.5,272590.2,189380.8,191648.7,188965.6,184642.8,0.0,0.0
1.0,246.0,185827.3,197908.1,223295.6,272583.8,189388.5,191657.1,188973.2,184654.6,0.0,0.0
1.0,247.0,185824.2,197908.7,223288.1,272571.4,189387.9,191655.7,188970.6,184655.3,0.0,0.0
1.0,248.0,185813.8,197893.2,223270.5,272546.5,189376.9,191638.6,188957.4,184643.7,0.0,0.0
1.0,249.0,185800.1,197879.7,223253.2,272514.6,189366.9,191627.0,188948.8,184633.7,0.0,0.0
1.0,250.0,185799.0,197874.9,223245.5,272505.0,189364.5,191620.9,188944.3,184632.0,0.0,0.0
1.0,251.0,185813.9,197883.0,223253.1,272519.4,189376.1,191627.9,188952.5,184645.8,0.0,0.0
1.0,252.0,185803.4,197874.4,223233.0,272467.7,189365.5,191623.3,188946.4,184637.3,0.0,0.0
1.0,253.0,185799.1,197872.7,223224.7,272446.8,189363.3,191621.7,188945.5,184634.0,0.0,0.0
1.0,254.0,185803.5,197882.1,223227.3,272448.0,189370.5,191626.5,188952.0,184640.5,0.0,0.0
1.0,255.0,185805.2,197883.4,223222.7,272435.0,189371.7,191630.1,188955.7,184642.0,0.0,0.0
1.0,256.0,185799.7,197875.4,223206.8,272405.4,189360.2,191619.4,188941.4,184629.0,0.0,0.0
1.0,257.0,185793.6,197869.6,223191.9,272382.1,189351.4,191610.5,188929.6,184621.3,0.0,0.0
1.0,258.0,185804.8,197881.7,223195.0,272380.9,189362.0,191623.2,188942.0,184632.7,0.0,0.0
1.0,259.0,185806.7,197882.5,223188.8,272364.7,189365.1,191628.0,188947.8,184632.0,0.0,0.0
1.0,260.0,185812.6,197889.1,223185.8,272349.1,189370.7,191634.1,188951.5,184634.9,0.0,0.0
1.0,261.0,185812.0,197885.2,223180.5,272340.2,189372.0,191632.1,188949.8,184639.2,0.0,0.0
1.0,262.0,185804.8,197879.4,223168.9,272320.2,189366.8,191627.1,188944.9,184635.6,0.0,0.0
1.0,263.0,185798.1,197870.5,223154.1,272294.3,189356.1,191614.1,188932.4,184622.9,0.0,0.0
1.1,264.0,185783.6,197855.8,223133.8,272260.3,189341.8,191598.3,188917.7,184607.2,0.0,0.0
1.1,265.0,185787.2,197862.2,223131.7,272248.6,189346.2,191602.8,188920.9,184611.5,0.0,0.0
1.1,266.0,185799.1,197873.4,223136.1,272247.6,189357.3,191616.2,188933.0,184622.8,0.0,0.0
1.1,267.0,185803.8,197873.7,223136.8,272253.5,189361.2,191616.6,188933.4,184623.4,0.0,0.0
1.1,268.0,185792.1,197861.6,223117.6,272209.8,189348.9,191606.8,188926.6,184611.2,0.0,0.0
1.1,269.0,185783.9,197856.7,223104.2,272175.8,189345.6,191606.6,188928.6,184610.7,0.0,0.0
1.1,270.0,185790.7,197862.3,223105.5,272177.9,189350.5,191608.9,188928.8,184613.2,0.0,0.0
1.1,271.0,185784.0,197853.4,223092.8,272163.2,189342.8,191599.2,188918.8,184607.0,0.0,0.0
1.1,272.0,185780.7,197849.2,223082.4,272139.4,189339.7,191597.5,188917.7,184606.9,0.0,0.0
1.1,273.0,185798.2,197864.7,223094.4,272144.4,189356.0,191614.5,188934.3,184626.8,0.0,0.0
1.1,274.0,185795.4,197866.5,223089.1,272126.8,189357.7,191618.2,188937.7,184626.5,0.0,0.0
1.1,275.0,185800.5,197873.2,223073.0,272115.9,189364.5,191624.7,188943.8,184632.6,0.0,0.0
1.1,276.0,185783.1,197856.1,223004.6,272087.4,189349.8,191611.7,188929.1,184621.0,0.0,0.0
1.1,277.0,185777.3,197851.7,222981.8,272069.4,189346.1,191609.5,188926.5,184615.8,0.0,0.0
1.1,278.0,185771.5,197842.5,222967.7,272050.1,189341.0,191601.9,188923.9,184611.6,0.0,0.0
1.1,279.0,185776.2,197847.6,222963.3,272034.2,189344.0,191602.8,188926.1,184611.8,0.0,0.0
1.1,280.0,185781.9,197850.8,222962.2,272024.4,189347.6,191603.5,188924.9,184611.1,0.0,0.0
1.1,281.0,185795.2,197864.6,222971.2,272031.5,189361.2,191616.4,188936.3,184623.4,0.0,0.0
1.1,282.0,185792.7,197856.9,222963.7,272029.4,189355.8,191606.8,188930.1,184620.1,0.0,0.0
1.1,283.0,185770.5,197841.6,222932.8,271960.4,189332.6,191590.5,188913.5,184597.6,0.0,0.0
1.1,284.0,185764.0,197831.9,222919.6,271935.0,189324.9,191583.0,188906.0,184591.8,0.0,0.0
1.1,285.0,185773.6,197834.7,222924.2,271941.7,189333.0,191586.9,188911.0,184602.3,0.0,0.0
1.1,286.0,185783.6,197843.2,222929.9,271945.4,189342.8,191595.8,188917.5,184608.0,0.0,0.0
1.1,287.0,185784.4,197845.5,222925.8,271939.0,189344.2,191596.0,188916.9,184611.4,0.0,0.0
1.1,288.0,185779.6,197845.2,222912.3,271907.6,189335.9,191590.6,188909.9,184603.5,0.0,0.0
1.2,289.0,185766.2,197835.2,222893.2,271873.9,189322.8,191580.2,188899.6,184590.6,0.0,0.0
1.2,290.0,185759.4,197826.9,222880.7,271856.7,189316.1,191575.1,188894.5,184586.2,0.0,0.0
1.2,291.0,185777.3,197845.7,222891.1,271859.3,189332.5,191593.4,188911.0,184603.8,0.0,0.0
1.2,292.0,185791.5,197859.7,222901.5,271863.6,189349.8,191607.4,188927.0,184621.6,0.0,0.0
1.2,293.0,185784.4,197853.9,222892.4,271842.8,189345.7,191600.0,188921.2,184611.0,0.0,0.0
1.2,294.0,185781.0,197850.8,222882.2,271817.0,189338.3,191593.4,188914.0,184597.8,0.0,0.0
1.2,295.0,185773.0,197839.8,222872.2,271807.3,189334.8,191589.9,188912.6,184598.1,0.0,0.0
1.2,296.0,185776.0,197834.3,222869.0,271806.8,189337.0,191585.6,188911.2,184600.5,0.0,0.0
1.2,297.0,185765.0,197829.9,222852.0,271762.3,189329.5,191583.0,188907.6,184597.6,0.0,0.0
1.2,298.0,185769.8,197840.4,222851.9,271757.9,189335.3,191588.2,188912.8,184602.8,0.0,0.0
1.2,299.0,185767.0,197835.4,222844.7,271749.3,189334.7,191587.4,188913.4,184602.9,0.0,0.0
1.2,300.0,185774.8,197841.1,222845.5,271745.4,189341.2,191594.0,188918.8,184610.5,0.0,0.0
1.2,301.0,185772.0,197836.5,222835.3,271730.6,189334.3,191588.4,188910.8,184604.3,0.0,0.0
1.2,302.0,185773.3,197838.1,222832.0,271720.8,189333.8,191589.2,188908.5,184600.9,0.0,0.0
1.2,303.0,185767.8,197840.9,222822.7,271693.8,189328.5,191585.7,188902.7,184592.0,0.0,0.0
1.2,304.0,185757.8,197829.0,222806.0,271663.0,189317.6,191575.7,188893.0,184583.3,0.0,0.0
1.2,305.0,185756.2,197822.7,222799.6,271654.9,189315.5,191573.1,188889.5,184580.0,0.0,0.0
1.2,306.0,185757.2,197824.7,222794.9,271642.6,189316.3,191575.0,188892.9,184580.8,0.0,0.0
1.2,307.0,185766.4,197836.5,222799.1,271638.9,189327.6,191588.9,188906.5,184590.4,0.0,0.0
1.2,308.0,185766.9,197838.4,222793.9,271623.1,189328.5,191589.9,188909.8,184591.2,0.0,0.0
1.2,309.0,185765.7,197835.6,222787.3,271612.7,189328.0,191584.8,188909.4,184593.3,0.0,0.0
1.2,310.0,185767.9,197836.0,222783.6,271608.0,189328.8,191581.8,188909.3,184597.3,0.0,0.0
1.2,311.0,185774.5,197836.3,222784.6,271615.2,189333.5,191581.2,188910.7,184601.4,0.0,0.0
1.2,312.0,185758.8,197817.8,222759.3,271559.4,189316.6,191567.6,188898.5,184590.0,0.0,0.0
1.2,313.0,185751.0,197812.8,222744.7,271532.8,189305.5,191556.0,188885.9,184578.7,0.0,0.0
1.3,314.0,185754.0,197818.1,222742.2,271524.3,189305.7,191556.3,188884.2,184576.8,0.0,0.0
1.3,315.0,185753.8,197815.9,222739.2,271516.5,189306.8,191558.1,188883.4,184577.9,0.0,0.0
1.3,316.0,185767.9,197826.7,222750.6,271531.9,189322.5,191571.4,188894.4,184594.9,0.0,0.0
1.3,317.0,185765.1,197827.8,222743.1,271508.3,189320.5,191574.4,188895.3,184588.0,0.0,0.0
1.3,318.0,185758.0,197827.9,222731.4,271481.0,189314.0,191572.4,188890.4,184578.8,0.0,0.0
1.3,319.0,185763.5,197836.3,222732.1,271474.4,189320.6,191580.1,188897.6,184583.4,0.0,0.0
1.3,320.0,185758.7,197834.3,222723.3,271459.8,189317.4,191578.9,188895.0,184580.6,0.0,0.0
1.3,321.0,185753.4,197825.9,222713.4,271453.0,189316.0,191573.8,188892.4,184584.7,0.0,0.0
1.3,322.0,185745.5,197818.8,222700.1,271429.1,189312.1,191572.2,188890.8,184583.3,0.0,0.0
1.3,323.0,185747.4,197821.5,222697.3,271418.2,189313.0,191572.4,188891.8,184583.7,0.0,0.0
1.3,324.0,185752.7,197827.1,222697.5,271412.3,189315.3,191573.1,188893.7,184583.0,0.0,0.0
1.3,325.0,185752.9,197820.4,222689.9,271399.2,189313.1,191569.9,188893.1,184583.4,0.0,0.0
1.3,326.0,185747.4,197816.0,222677.1,271374.0,189303.6,191560.8,188882.9,184574.7,0.0,0.0
1.3,327.0,185748.5,197814.4,222673.1,271360.3,189302.6,191559.9,188882.3,184575.9,0.0,0.0
1.3,328.0,185754.1,197813.0,222671.4,271346.2,189304.7,191561.7,188886.2,184577.6,0.0,0.0
1.3,329.0,185769.7,197825.8,222680.1,271348.9,189316.5,191572.4,188898.7,184587.6,0.0,0.0
1.3,330.0,185779.7,197839.1,222687.7,271361.7,189326.7,191582.7,188906.9,184596.8,0.0,0.0
1.3,331.0,185751.3,197817.9,222653.9,271297.3,189303.5,191565.8,188886.8,184574.1,0.0,0.0
1.3,332.0,185751.2,197814.6,222647.1,271290.4,189301.3,191559.0,188880.8,184569.2,0.0,0.0
1.3,333.0,185747.7,197810.8,222640.3,271278.7,189297.6,191554.1,188875.9,184561.8,0.0,0.0
1.3,334.0,185747.6,197813.4,222638.4,271275.9,189298.3,191554.0,188876.0,184560.9,0.0,0.0
1.3,335.0,185752.5,197818.1,222639.5,271269.0,189305.7,191562.1,188883.5,184569.0,0.0,0.0
1.3,336.0,185752.1,197817.5,222633.6,271252.3,189308.0,191565.5,188886.7,184575.4,0.0,0.0
1.3,337.0,185757.2,197820.0,222631.1,271244.8,189312.0,191568.1,188889.2,184579.3,0.0,0.0
1.3,338.0,185758.1,197817.1,222625.1,271233.5,189309.6,191564.6,188885.7,184575.7,0.0,0.0
1.4,339.0,185748.6,197808.6,222612.1,271212.1,189299.7,191554.3,188876.5,184566.0,0.0,0.0
1.4,340.0,185741.2,197803.5,222602.1,271193.9,189296.0,191551.4,188875.0,184563.2,0.0,0.0
1.4,341.0,185745.8,197810.1,222602.3,271187.8,189303.7,191560.3,188881.6,184569.5,0.0,0.0
1.4,342.0,185749.2,197817.9,222603.6,271183.8,189312.2,191569.8,188890.5,184579.4,0.0,0.0
1.4,343.0,185750.0,197822.7,222600.0,271170.7,189313.5,191573.5,188893.5,184581.4,0.0,0.0
1.4,344.0,185748.3,197824.2,222593.6,271152.7,189308.7,191569.5,188886.7,184575.8,0.0,0.0
1.4,345.0,185743.8,197816.9,222583.9,271136.3,189300.9,191563.7,188880.4,184572.1,0.0,0.0
1.4,346.0,185747.6,197816.8,222579.2,271118.7,189300.7,191567.0,188882.9,184573.4,0.0,0.0
1.4,347.0,185761.0,197822.4,222582.4,271120.3,189306.2,191567.3,188885.9,184579.0,0.0,0.0
1.4,348.0,185755.4,197815.9,222572.7,271112.8,189300.0,191559.6,188879.2,184567.7,0.0,0.0
1.4,349.0,185746.5,197801.8,222557.1,271084.4,189291.2,191552.8,188873.4,184559.9,0.0,0.0
1.4,350.0,185747.3,197809.9,222552.9,271053.3,189294.7,191559.7,188877.9,184558.8,0.0,0.0
1.4,351.0,185752.7,197812.4,222558.1,271063.7,189301.7,191562.2,188879.9,184564.3,0.0,0.0
1.4,352.0,185759.0,197814.4,222564.0,271072.2,189311.1,191563.1,188884.0,184573.4,0.0,0.0
1.4,353.0,185758.0,197818.2,222561.5,271055.7,189312.9,191563.6,188883.7,184571.7,0.0,0.0
1.4,354.0,185742.6,197808.9,222543.3,271024.2,189301.2,191552.8,188873.4,184559.2,0.0,0.0
1.4,355.0,185740.2,197807.5,222537.5,271017.0,189301.9,191551.7,188872.6,184562.0,0.0,0.0
1.4,356.0,185736.1,197804.1,222530.4,271007.6,189302.1,191553.6,188874.7,184566.3,0.0,0.0
1.4,357.0,185736.2,197804.4,222525.3,270996.5,189303.0,191555.4,188877.2,184569.8,0.0,0.0
1.4,358.0,185734.5,197801.8,222515.7,270981.6,189297.4,191549.9,188873.5,184568.7,0.0,0.0
1.4,359.0,185731.7,197801.6,222507.0,270964.3,189291.0,191544.9,188868.9,184561.7,0.0,0.0
1.4,360.0,185739.2,197802.0,222507.5,270960.3,189295.2,191550.3,188873.7,184566.8,0.0,0.0
1.4,361.0,185753.7,197816.3,222514.7,270958.5,189306.1,191564.3,188885.1,184576.9,0.0,0.0
1.4,362.0,185759.9,197821.7,222515.3,270950.8,189310.2,191571.3,188892.5,184581.6,0.0,0.0
1.4,363.0,185763.9,197827.6,222515.7,270943.7,189313.8,191576.1,188896.6,184581.9,0.0,0.0
1.5,364.0,185752.7,197821.1,222501.5,270917.8,189303.7,191564.1,188883.0,184568.2,0.0,0.0
1.5,365.0,185748.5,197817.2,222493.6,270901.4,189300.3,191560.7,188877.2,184562.2,0.0,0.0
1.5,366.0,185741.1,197808.6,222488.3,270897.6,189301.7,191562.4,188878.1,184566.5,0.0,0.0
1.5,367.0,185747.1,197812.0,222491.3,270905.0,189308.3,191565.1,188882.9,184572.5,0.0,0.0
1.5,368.0,185734.9,197801.9,222475.5,270879.6,189297.0,191551.6,188871.2,184558.6,0.0,0.0
1.5,369.0,185716.4,197790.3,222450.7,270821.2,189279.9,191540.4,188858.7,184544.9,0.0,0.0
1.5,370.0,185727.5,197796.5,222456.3,270830.3,189287.0,191545.5,188862.5,184551.6,0.0,0.0
1.5,371.0,185741.2,197804.4,222462.1,270835.0,189295.5,191553.8,188870.8,184561.7,0.0,0.0
1.5,372.0,185750.9,197807.6,222465.4,270833.9,189301.3,191560.6,188878.4,184572.0,0.0,0.0
1.5,373.0,185755.9,197810.7,222465.9,270827.7,189304.7,191564.1,188883.5,184574.4,0.0,0.0
1.5,374.0,185755.1,197810.2,222461.0,270810.4,189303.2,191560.0,188881.3,184572.0,0.0,0.0
1.5,375.0,185749.3,197805.4,222450.3,270797.6,189296.7,191551.0,188873.0,184565.3,0.0,0.0
1.5,376.0,185740.2,197792.3,222435.2,270783.5,189285.4,191535.9,188858.2,184552.9,0.0,0.0
1.5,377.0,185731.6,197785.8,222421.5,270757.2,189280.3,191532.2,188853.3,184547.9,0.0,0.0
1.5,378.0,185741.2,197802.3,222428.4,270752.0,189295.2,191549.9,188871.5,184563.5,0.0,0.0
1.5,379.0,185754.1,197820.4,222439.5,270755.1,189311.3,191568.6,188891.0,184577.0,0.0,0.0
1.5,380.0,185749.8,197820.4,222431.9,270743.6,189309.9,191567.3,188888.8,184576.5,0.0,0.0
1.5,381.0,185742.6,197815.7,222422.2,270729.2,189307.7,191567.5,188886.9,184574.6,0.0,0.0
1.5,382.0,185730.7,197805.9,222407.2,270709.0,189297.6,191557.4,188876.5,184565.4,0.0,0.0
1.5,383.0,185727.3,197806.1,222400.1,270692.0,189294.5,191554.4,188871.4,184556.9,0.0,0.0
1.5,384.0,185730.8,197805.7,222398.8,270682.8,189296.1,191554.7,188874.7,184557.5,0.0,0.0
1.5,385.0,185740.7,197809.0,222402.2,270680.5,189301.8,191558.1,188879.7,184564.0,0.0,0.0
1.5,386.0,185739.1,197804.1,222392.5,270666.1,189295.3,191552.4,188872.7,184558.6,0.0,0.0
1.5,387.0,185727.3,197788.7,222372.0,270642.4,189279.3,191536.0,188857.8,184548.3,0.0,0.0
1.5,388.0,185727.9,197783.9,222364.6,270641.4,189274.8,191527.4,188849.9,184545.0,0.0,0.0
1.6,389.0,185729.9,197780.2,222365.3,270655.8,189279.0,191527.3,188852.8,184552.5,0.0,0.0
1.6,390.0,185711.1,197774.6,222344.5,270598.3,189268.8,191526.0,188850.2,184543.8,0.0,0.0
1.6,391.0,185726.2,197788.9,222355.2,270599.1,189285.1,191543.5,188867.5,184559.8,0.0,0.0
1.6,392.0,185734.8,197801.6,222360.9,270600.5,189292.7,191550.6,188872.4,184565.5,0.0,0.0
1.6,393.0,185738.3,197807.2,222361.1,270592.1,189295.0,191551.4,188871.1,184563.1,0.0,0.0
1.6,394.0,185737.3,197807.5,222359.0,270584.3,189295.9,191552.1,188871.3,184562.6,0.0,0.0
1.6,395.0,185737.5,197809.5,222356.6,270575.1,189298.6,191555.8,188875.8,184565.4,0.0,0.0
1.6,396.0,185737.0,197811.2,222354.6,270567.5,189301.9,191558.7,188878.8,184568.9,0.0,0.0
1.6,397.0,185729.4,197802.9,222342.9,270551.7,189296.1,191552.9,188873.0,184563.5,0.0,0.0
1.6,398.0,185733.2,197801.9,222341.5,270549.9,189299.0,191553.7,188874.7,184564.1,0.0,0.0
1.6,399.0,185732.1,197797.4,222332.9,270531.7,189292.7,191549.6,188869.9,184556.1,0.0,0.0
1.6,400.0,185732.4,197795.1,222325.7,270511.5,189288.7,191548.0,188867.9,184553.7,0.0,0.0
1.6,401.0,185734.1,197793.4,222319.1,270499.6,189286.0,191545.0,188864.4,184552.9,0.0,0.0
1.6,402.0,185730.4,197786.2,222308.0,270484.2,189276.7,191534.0,188855.5,184545.8,0.0,0.0
1.6,403.0,185730.8,197790.1,222305.0,270472.9,189276.9,191534.1,188856.2,184544.2,0.0,0.0
1.6,404.0,185719.7,197778.3,222290.3,270448.0,189264.6,191520.2,188844.7,184533.2,0.0,0.0
1.6,405.0,185728.9,197785.5,222296.9,270455.4,189273.9,191524.3,188851.1,184544.3,0.0,0.0
1.6,406.0,185731.7,197789.2,222296.3,270446.8,189278.1,191530.7,188855.5,184547.7,0.0,0.0
1.6,407.0,185725.0,197787.3,222287.3,270430.3,189273.5,191529.1,188851.6,184542.4,0.0,0.0
1.6,408.0,185742.1,197802.8,222300.5,270441.7,189291.1,191545.9,188869.2,184557.7,0.0,0.0
1.6,409.0,185750.2,197811.7,222309.7,270456.7,189307.3,191559.7,188885.9,184577.0,0.0,0.0
1.6,410.0,185729.3,197796.0,222282.1,270405.2,189286.0,191544.9,188867.6,184553.9,0.0,0.0
1.6,411.0,185720.8,197784.6,222266.6,270378.3,189275.4,191536.0,188855.5,184546.4,0.0,0.0
1.6,412.0,185727.4,197789.1,222269.9,270383.0,189281.1,191538.3,188857.8,184550.7,0.0,0.0
1.6,413.0,185729.8,197791.4,222267.6,270371.9,189280.9,191537.6,188857.0,184545.7,0.0,0.0
1.7,414.0,185738.6,197801.4,222274.1,270368.4,189288.3,191542.5,188863.0,184549.8,0.0,0.0
1.7,415.0,185745.1,197806.9,222278.6,270368.9,189295.2,191548.9,188868.2,184555.3,0.0,0.0
1.7,416.0,185742.9,197802.7,222274.2,270363.3,189294.6,191544.4,188865.4,184555.7,0.0,0.0
1.7,417.0,185734.0,197795.5,222262.0,270338.0,189287.4,191537.7,188860.1,184552.4,0.0,0.0
1.7,418.0,185729.9,197798.5,222254.6,270318.2,189286.1,191541.8,188863.8,184553.6,0.0,0.0
1.7,419.0,185736.2,197805.1,222253.9,270311.2,189290.5,191549.0,188869.6,184553.2,0.0,0.0
1.7,420.0,185728.4,197795.4,222242.8,270298.8,189285.2,191542.9,188865.5,184549.9,0.0,0.0
1.7,421.0,185722.3,197787.4,222233.5,270291.1,189279.8,191534.8,188858.7,184546.6,0.0,0.0
1.7,422.0,185713.0,197773.9,222218.5,270270.5,189268.6,191522.1,188846.8,184538.5,0.0,0.0
1.7,423.0,185716.0,197777.2,222216.5,270260.1,189268.7,191519.8,188845.7,184537.8,0.0,0.0
1.7,424.0,185725.8,197779.8,222220.9,270259.5,189275.9,191525.9,188855.4,184545.7,0.0,0.0
1.7,425.0,185739.8,197795.9,222228.8,270260.1,189286.0,191538.0,188865.1,184552.3,0.0,0.0
1.7,426.0,185739.5,197790.9,222223.5,270260.9,189281.6,191530.6,188856.1,184548.4,0.0,0.0
1.7,427.0,185724.8,197780.2,222207.7,270242.8,189270.7,191521.5,188844.4,184538.5,0.0,0.0
1.7,428.0,185716.0,197780.7,222196.2,270198.4,189269.7,191529.2,188853.5,184540.5,0.0,0.0
1.7,429.0,185743.5,197814.4,222222.7,270218.8,189297.7,191557.9,188879.0,184559.4,0.0,0.0
1.7,430.0,185740.1,197812.1,222216.6,270206.2,189293.3,191553.6,188871.6,184551.1,0.0,0.0
1.7,431.0,185737.5,197808.4,222210.9,270197.5,189293.5,191554.5,188871.3,184551.3,0.0,0.0
1.7,432.0,185741.6,197808.6,222210.9,270195.3,189298.1,191558.3,188876.5,184558.6,0.0,0.0
1.7,433.0,185737.9,197799.1,222200.7,270180.6,189292.6,191550.5,188871.3,184555.1,0.0,0.0
1.7,434.0,185734.7,197792.2,222192.3,270163.6,189287.9,191542.7,188866.1,184548.3,0.0,0.0
1.7,435.0,185741.0,197797.0,222194.5,270163.1,189292.9,191545.2,188870.1,184555.8,0.0,0.0
1.7,436.0,185743.6,197799.1,222191.4,270150.7,189293.3,191545.2,188870.8,184558.0,0.0,0.0
1.7,437.0,185740.7,197790.1,222182.5,270139.6,189288.1,191538.4,188865.7,184555.8,0.0,0.0
1.7,438.0,185734.6,197788.9,222174.5,270125.4,189283.9,191534.1,188862.5,184549.4,0.0,0.0
1.8,439.0,185727.3,197786.9,222165.1,270104.1,189279.1,191529.4,188858.3,184545.2,0.0,0.0
1.8,440.0,185721.4,197783.3,222154.7,270085.2,189272.7,191526.4,188852.5,184540.7,0.0,0.0
1.8,441.0,185725.6,197789.1,222153.5,270081.9,189275.8,191531.1,188854.3,184544.0,0.0,0.0
1.8,442.0,185723.9,197788.7,222146.2,270069.2,189272.6,191528.7,188850.9,184539.3,0.0,0.0
1.8,443.0,185719.0,197787.3,222137.3,270050.5,189268.0,191526.1,188847.0,184530.9,0.0,0.0
1.8,444.0,185723.1,197792.3,222138.3,270048.1,189276.4,191533.8,188857.1,184540.8,0.0,0.0
1.8,445.0,185719.8,197786.2,222130.1,270037.8,189273.2,191530.4,188854.4,184538.9,0.0,0.0
1.8,446.0,185727.6,197790.0,222132.4,270036.3,189278.4,191536.7,188859.3,184541.7,0.0,0.0
1.8,447.0,185739.1,197796.0,222138.1,270035.8,189282.5,191539.6,188860.3,184541.5,0.0,0.0
1.8,448.0,185752.3,197796.9,222146.6,270048.5,189290.0,191541.6,188867.7,184552.3,0.0,0.0
1.8,449.0,185740.4,197782.1,222132.6,270024.5,189279.1,191528.8,188859.5,184546.3,0.0,0.0
1.8,450.0,185725.1,197773.1,222110.5,269978.4,189262.5,191517.0,188845.4,184532.2,0.0,0.0
1.8,451.0,185733.3,197780.4,222112.8,269985.5,189269.6,191526.0,188853.1,184542.7,0.0,0.0
1.8,452.0,185727.4,197778.1,222101.8,269972.2,189266.0,191524.6,188851.1,184539.0,0.0,0.0
1.8,453.0,185718.6,197771.1,222089.7,269958.7,189262.1,191521.5,188848.4,184536.0,0.0,0.0
1.8,454.0,185719.2,197780.5,222089.0,269950.2,189267.9,191529.1,188855.6,184539.6,0.0,0.0
1.8,455.0,185728.6,197791.6,222096.7,269953.1,189278.5,191538.3,188863.2,184549.7,0.0,0.0
1.8,456.0,185722.3,197782.0,222085.6,269935.5,189271.1,191531.0,188853.7,184543.7,0.0,0.0
1.8,457.0,185718.9,197774.9,222077.6,269923.2,189266.2,191527.5,188849.4,184538.6,0.0,0.0
1.8,458.0,185722.2,197778.4,222078.3,269914.1,189272.5,191536.7,188858.7,184542.8,0.0,0.0
1.8,459.0,185721.9,197779.1,222076.8,269907.6,189275.9,191541.4,188864.8,184544.0,0.0,0.0
1.8,460.0,185719.1,197778.0,222071.4,269899.3,189272.5,191538.9,188859.2,184538.6,0.0,0.0
1.8,461.0,185711.1,197769.3,222058.5,269877.6,189262.0,191525.3,188846.2,184528.6,0.0,0.0
1.8,462.0,185720.4,197778.2,222063.2,269885.3,189268.6,191531.6,188851.2,184536.3,0.0,0.0
1.8,463.0,185725.2,197784.1,222064.5,269881.1,189273.5,191536.7,188858.3,184542.8,0.0,0.0
1.9,464.0,185713.9,197776.6,222050.5,269850.5,189262.9,191522.1,188845.9,184529.1,0.0,0.0
1.9,465.0,185713.3,197775.9,222041.0,269834.2,189258.4,191521.2,188845.2,184527.2,0.0,0.0
1.9,466.0,185716.9,197773.5,222035.0,269826.1,189257.5,191524.2,188847.6,184528.9,0.0,0.0
1.9,467.0,185724.9,197782.2,222038.5,269825.9,189266.8,191532.7,188856.1,184535.1,0.0,0.0
1.9,468.0,185735.4,197794.7,222046.2,269827.7,189278.0,191539.7,188868.1,184547.0,0.0,0.0
1.9,469.0,185734.7,197791.6,222042.1,269816.4,189278.4,191538.3,188866.3,184546.4,0.0,0.0
1.9,470.0,185730.8,197780.6,222032.7,269802.5,189270.2,191524.7,188853.0,184537.9,0.0,0.0
1.9,471.0,185734.9,197780.6,222031.3,269799.1,189271.7,191528.6,188853.4,184541.2,0.0,0.0
1.9,472.0,185755.2,197797.2,222044.5,269810.6,189287.5,191545.9,188868.3,184557.5,0.0,0.0
1.9,473.0,185789.2,197831.1,222075.2,269846.4,189318.7,191574.7,188896.9,184585.3,0.0,0.0
1.9,474.0,185772.6,197817.5,222049.7,269789.0,189296.8,191558.8,188878.0,184560.7,0.0,0.0
1.9,475.0,185766.9,197805.7,222032.4,269760.2,189280.6,191540.5,188857.0,184537.6,0.0,0.0
1.9,476.0,185774.1,197810.1,222032.8,269760.6,189285.1,191546.9,188860.9,184542.1,0.0,0.0
1.9,477.0,185769.7,197804.8,222027.7,269753.5,189285.8,191547.6,188862.5,184544.9,0.0,0.0
1.9,478.0,185768.1,197803.8,222022.3,269746.0,189286.3,191547.1,188863.6,184544.1,0.0,0.0
1.9,479.0,185767.5,197801.0,222016.9,269734.8,189283.0,191541.8,188858.8,184540.2,0.0,0.0
1.9,480.0,185768.3,197800.1,222013.3,269721.9,189278.2,191531.7,188847.3,184533.2,0.0,0.0
1.9,481.0,185780.0,197807.7,222019.3,269722.8,189285.7,191538.4,188851.9,184539.6,0.0,0.0
1.9,482.0,185787.5,197810.6,222021.6,269719.2,189291.0,191544.6,188859.5,184546.1,0.0,0.0
1.9,483.0,185795.4,197818.3,222023.5,269712.4,189297.0,191551.5,188869.9,184551.6,0.0,0.0
1.9,484.0,185803.2,197830.6,222030.2,269709.6,189306.8,191561.6,188882.1,184557.7,0.0,0.0
1.9,485.0,185800.1,197830.3,222024.0,269697.0,189303.6,191559.7,188880.2,184557.5,0.0,0.0
1.9,486.0,185795.4,197824.5,222013.3,269689.7,189298.3,191554.3,188872.1,184555.0,0.0,0.0
1.9,487.0,185799.7,197835.6,222014.3,269686.8,189306.8,191566.0,188881.9,184565.8,0.0,0.0
1.9,488.0,185801.7,197837.7,222011.6,269676.6,189310.9,191572.2,188889.7,184571.9,0.0,0.0
2.0,489.0,185800.6,197837.3,222007.2,269666.9,189308.1,191566.1,188883.9,184564.1,0.0,0.0
2.0,490.0,185801.2,197844.4,222005.3,269660.3,189309.3,191566.8,188882.8,184561.8,0.0,0.0
2.0,491.0,185791.8,197829.2,221993.7,269649.8,189303.3,191558.8,188875.3,184559.4,0.0,0.0
2.0,492.0,185785.1,197819.9,221982.7,269629.0,189297.5,191554.1,188870.7,184556.5,0.0,0.0
2.0,493.0,185773.0,197812.0,221971.6,269606.8,189290.1,191546.5,188867.9,184551.7,0.0,0.0
2.0,494.0,185772.6,197812.4,221969.4,269596.5,189288.5,191545.2,188864.0,184546.0,0.0,0.0
2.0,495.0,185781.4,197817.3,221972.7,269594.2,189291.9,191550.7,188865.8,184546.6,0.0,0.0
2.0,496.0,185777.9,197814.5,221966.6,269591.2,189287.2,191545.3,188859.6,184540.7,0.0,0.0
2.0,497.0,185787.2,197822.1,221974.1,269601.3,189298.5,191555.2,188870.1,184555.1,0.0,0.0
2.0,498.0,185779.5,197820.0,221961.5,269559.4,189294.1,191557.9,188872.8,184555.0,0.0,0.0
2.0,499.0,185789.3,197835.6,221970.8,269565.3,189306.2,191568.6,188883.5,184559.2,0.0,0.0
2.0,500.0,185782.2,197831.1,221964.1,269557.5,189304.4,191566.4,188880.5,184557.8,0.0,0.0
2.0,501.0,185771.9,197823.0,221952.4,269544.6,189298.4,191558.7,188871.2,184554.4,0.0,0.0
2.0,502.0,185774.8,197829.6,221953.5,269544.5,189305.9,191564.5,188877.4,184561.7,0.0,0.0
2.0,503.0,185772.4,197832.9,221951.1,269535.1,189310.1,191567.4,188882.6,184564.2,0.0,0.0
2.0,504.0,185759.3,197826.9,221936.6,269511.0,189300.8,191561.1,188875.6,184554.2,0.0,0.0
2.0,505.0,185751.3,197822.1,221925.8,269495.3,189294.6,191556.5,188870.3,184549.8,0.0,0.0
2.0,506.0,185748.2,197810.5,221915.1,269481.2,189287.1,191548.7,188863.2,184543.0,0.0,0.0
2.0,507.0,185756.0,197814.7,221916.3,269477.4,189291.4,191554.0,188871.2,184549.2,0.0,0.0
2.0,508.0,185751.2,197806.8,221905.3,269461.4,189283.1,191544.3,188867.0,184541.9,0.0,0.0
2.0,509.0,185739.7,197793.5,221891.2,269444.0,189272.3,191530.2,188857.9,184531.8,0.0,0.0
2.0,510.0,185739.0,197797.1,221889.8,269437.0,189274.4,191533.3,188858.9,184532.9,0.0,0.0
2.0,511.0,185752.5,197807.7,221899.3,269445.0,189287.2,191544.8,188870.8,184547.0,0.0,0.0
2.0,512.0,185759.1,197810.5,221901.1,269445.7,189293.9,191552.0,188877.6,184554.3,0.0,0.0
2.0,513.0,185757.6,197810.3,221896.4,269432.0,189292.8,191556.5,188880.6,184552.8,0.0,0.0
2.1,514.0,185750.1,197806.7,221886.9,269418.2,189287.1,191551.9,188876.8,184548.2,0.0,0.0
2.1,515.0,185739.8,197800.5,221875.0,269401.2,189279.6,191547.1,188870.3,184541.4,0.0,0.0
2.1,516.0,185738.2,197801.3,221871.6,269392.6,189281.5,191547.8,188870.5,184543.2,0.0,0.0
2.1,517.0,185742.8,197808.8,221873.7,269390.5,189288.6,191556.1,188877.5,184550.2,0.0,0.0
2.1,518.0,185743.3,197813.9,221874.5,269389.4,189294.6,191562.6,188884.5,184556.5,0.0,0.0
2.1,519.0,185741.1,197813.8,221868.2,269374.6,189292.1,191558.6,188881.4,184553.4,0.0,0.0
2.1,520.0,185738.7,197810.3,221861.3,269361.4,189286.7,191551.2,188874.0,184547.5,0.0,0.0
2.1,521.0,185746.8,197814.5,221867.3,269373.9,189295.0,191557.7,188881.3,184559.2,0.0,0.0
2.1,522.0,185732.4,197800.2,221847.9,269331.8,189282.1,191549.4,188874.6,184553.6,0.0,0.0
2.1,523.0,185737.2,197805.5,221849.3,269331.3,189283.7,191549.2,188874.6,184554.3,0.0,0.0
2.1,524.0,185736.8,197801.0,221844.9,269324.1,189278.9,191541.0,188870.5,184549.9,0.0,0.0
2.1,525.0,185731.9,197786.3,221833.3,269308.3,189268.1,191529.3,188855.1,184534.7,0.0,0.0
2.1,526.0,185739.3,197795.4,221839.1,269311.3,189278.0,191540.1,188863.1,184545.2,0.0,0.0
2.1,527.0,185748.2,197803.6,221844.9,269316.2,189288.7,191549.5,188875.7,184558.4,0.0,0.0
2.1,528.0,185745.7,197805.6,221837.7,269300.2,189286.0,191549.8,188872.0,184549.1,0.0,0.0
2.1,529.0,185751.8,197807.7,221834.2,269293.3,189285.2,191549.8,188871.0,184545.0,0.0,0.0
2.1,530.0,185744.3,197802.9,221823.3,269278.7,189280.7,191546.0,188869.9,184545.2,0.0,0.0
2.1,531.0,185728.8,197791.0,221805.8,269256.6,189269.7,191537.7,188858.7,184535.8,0.0,0.0
2.1,532.0,185718.8,197782.5,221796.4,269243.2,189266.4,191539.5,188860.9,184537.7,0.0,0.0
2.1,533.0,185733.5,197801.0,221807.9,269243.7,189279.8,191557.3,188876.6,184550.8,0.0,0.0
2.1,534.0,185741.5,197805.6,221813.5,269242.8,189286.2,191564.0,188883.1,184555.0,0.0,0.0
2.1,535.0,185734.9,197802.7,221806.5,269225.3,189280.0,191560.6,188874.8,184545.3,0.0,0.0
2.1,536.0,185732.4,197797.2,221801.1,269216.3,189277.8,191557.0,188870.4,184545.4,0.0,0.0
2.1,537.0,185732.9,197791.3,221798.9,269209.3,189278.2,191552.7,188867.5,184545.2,0.0,0.0
2.1,538.0,185733.9,197791.8,221799.2,269202.4,189281.5,191551.2,188869.4,184548.3,0.0,0.0
2.2,539.0,185734.2,197791.2,221797.8,269201.8,189281.8,191549.1,188870.1,184550.2,0.0,0.0
2.2,540.0,185732.9,197788.5,221792.5,269197.6,189279.0,191544.4,188864.7,184546.1,0.0,0.0
2.2,541.0,185730.8,197790.0,221787.5,269187.1,189276.8,191543.7,188863.7,184545.2,0.0,0.0
2.2,542.0,185735.5,197797.2,221789.1,269193.7,189279.6,191544.5,188865.9,184550.2,0.0,0.0
2.2,543.0,185710.5,197782.2,221760.2,269140.1,189256.1,191524.3,188842.0,184524.6,0.0,0.0
2.2,544.0,185704.2,197772.0,221749.3,269117.3,189248.3,191517.1,188835.4,184515.3,0.0,0.0
2.2,545.0,185723.1,197796.1,221768.6,269138.5,189270.8,191538.0,188857.8,184536.4,0.0,0.0
2.2,546.0,185732.6,197809.5,221779.2,269147.5,189287.0,191556.1,188875.3,184553.4,0.0,0.0
2.2,547.0,185718.6,197795.1,221760.4,269123.8,189274.8,191547.0,188866.0,184541.7,0.0,0.0
2.2,548.0,185713.3,197785.8,221747.9,269107.2,189266.4,191538.4,188858.0,184531.7,0.0,0.0
2.2,549.0,185717.9,197789.6,221750.2,269101.9,189270.8,191540.0,188860.3,184533.1,0.0,0.0
2.2,550.0,185724.4,197795.3,221753.4,269099.7,189275.8,191543.9,188863.7,184537.6,0.0,0.0
2.2,551.0,185736.6,197798.9,221756.0,269101.1,189278.8,191545.1,188865.2,184543.9,0.0,0.0
2.2,552.0,185751.6,197805.2,221764.0,269102.5,189290.2,191557.0,188878.5,184555.9,0.0,0.0
2.2,553.0,185752.3,197809.4,221764.4,269094.5,189295.1,191563.3,188884.9,184556.9,0.0,0.0
2.2,554.0,185756.9,197811.4,221763.9,269083.9,189294.0,191561.1,188883.5,184554.2,0.0,0.0
2.2,555.0,185754.9,197809.7,221755.3,269062.3,189287.8,191556.7,188877.1,184546.4,0.0,0.0
2.2,556.0,185753.1,197808.1,221755.9,269064.9,189294.5,191562.8,188881.3,184554.2,0.0,0.0
2.2,557.0,185769.2,197821.5,221765.9,269070.6,189306.7,191573.9,188888.8,184561.7,0.0,0.0
2.2,558.0,185771.4,197832.3,221769.4,269066.9,189314.9,191580.7,188895.4,184566.0,0.0,0.0
2.2,559.0,185772.6,197835.8,221767.7,269056.7,189315.3,191580.5,188893.7,184562.5,0.0,0.0
2.2,560.0,185769.7,197830.3,221763.8,269050.3,189315.8,191581.5,188894.1,184563.5,0.0,0.0
2.2,561.0,185770.6,197829.4,221763.5,269046.2,189318.5,191582.3,188897.0,184568.5,0.0,0.0
2.2,562.0,185770.6,197833.1,221763.4,269040.4,189321.0,191585.6,188899.3,184569.9,0.0,0.0
2.2,563.0,185772.3,197838.1,221764.1,269033.7,189324.0,191589.3,188902.9,184569.8,0.0,0.0
2.3,564.0,185772.6,197835.4,221760.7,269025.0,189321.1,191586.5,188902.0,184566.9,0.0,0.0
2.3,565.0,185765.2,197824.5,221750.3,269013.6,189312.7,191575.6,188893.1,184561.8,0.0,0.0
2.3,566.0,185763.0,197820.8,221744.9,269007.5,189309.9,191571.9,188889.0,184560.2,0.0,0.0
2.3,567.0,185768.1,197824.1,221744.2,269005.8,189312.0,191575.6,188889.5,184562.1,0.0,0.0
2.3,568.0,185765.6,197823.1,221736.4,268990.5,189306.8,191572.2,188887.5,184558.6,0.0,0.0
2.3,569.0,185763.0,197824.6,221731.0,268977.4,189305.6,191571.9,188887.1,184555.9,0.0,0.0
2.3,570.0,185752.9,197812.3,221719.8,268966.5,189300.5,191565.1,188885.4,184555.8,0.0,0.0
2.3,571.0,185749.3,197810.2,221710.9,268947.2,189295.4,191563.8,188880.6,184550.1,0.0,0.0
2.3,572.0,185748.3,197810.7,221704.1,268939.9,189292.7,191560.7,188876.1,184548.7,0.0,0.0
2.3,573.0,185748.5,197812.1,221702.5,268938.0,189294.2,191562.8,188879.2,184551.1,0.0,0.0
2.3,574.0,185743.3,197801.8,221693.6,268922.2,189288.3,191557.8,188875.0,184542.4,0.0,0.0
2.3,575.0,185746.7,197807.9,221694.3,268917.1,189291.2,191560.4,188879.0,184547.9,0.0,0.0
2.3,576.0,185748.6,197809.9,221693.4,268913.5,189292.8,191561.0,188879.1,184549.7,0.0,0.0
2.3,577.0,185751.8,197815.3,221692.9,268907.8,189295.4,191562.8,188879.5,184549.8,0.0,0.0
2.3,578.0,185754.4,197813.7,221692.5,268902.8,189298.8,191567.5,188885.0,184554.2,0.0,0.0
2.3,579.0,185755.2,197809.6,221689.5,268896.9,189297.5,191566.5,188885.7,184552.5,0.0,0.0
2.3,580.0,185765.4,197818.1,221699.3,268918.4,189308.3,191574.3,188891.4,184562.4,0.0,0.0
2.3,581.0,185743.8,197805.0,221675.8,268865.7,189292.8,191564.6,188879.8,184548.3,0.0,0.0
2.3,582.0,185748.7,197808.7,221677.1,268859.8,189298.2,191569.5,188887.1,184554.8,0.0,0.0
2.3,583.0,185748.2,197806.8,221675.9,268859.2,189297.5,191565.9,188885.8,184551.8,0.0,0.0
2.3,584.0,185755.2,197814.1,221681.5,268860.6,189303.2,191569.0,188890.6,184556.1,0.0,0.0
2.3,585.0,185755.9,197814.3,221680.4,268856.3,189305.7,191570.1,188892.2,184560.0,0.0,0.0
2.3,586.0,185757.8,197814.8,221679.5,268852.5,189307.5,191571.8,188892.0,184562.5,0.0,0.0
2.3,587.0,185755.6,197812.4,221675.4,268849.9,189307.0,191570.4,188890.3,184567.3,0.0,0.0
2.3,588.0,185751.3,197806.1,221666.2,268833.4,189298.2,191560.5,188881.4,184559.2,0.0,0.0
2.4,589.0,185751.4,197807.1,221660.8,268818.2,189293.4,191557.4,188877.7,184552.6,0.0,0.0
2.4,590.0,185758.7,197814.8,221663.6,268817.0,189299.2,191563.9,188883.1,184558.0,0.0,0.0
2.4,591.0,185757.8,197803.8,221657.2,268811.0,189297.3,191560.7,188878.9,184558.5,0.0,0.0
2.4,592.0,185753.5,197801.7,221649.1,268796.5,189292.1,191555.9,188872.4,184554.4,0.0,0.0
2.4,593.0,185756.7,197810.3,221649.6,268790.7,189294.3,191559.5,188877.5,184557.6,0.0,0.0
2.4,594.0,185759.4,197814.1,221648.3,268783.0,189295.9,191562.1,188879.8,184557.1,0.0,0.0
2.4,595.0,185753.7,197809.5,221638.2,268766.9,189289.9,191557.5,188873.2,184550.1,0.0,0.0
2.4,596.0,185755.5,197813.3,221638.9,268767.0,189295.2,191565.0,188879.7,184555.3,0.0,0.0
2.4,597.0,185761.8,197816.9,221645.4,268785.7,189303.9,191569.7,188884.8,184563.2,0.0,0.0
2.4,598.0,185758.7,197818.9,221640.9,268764.6,189301.4,191567.8,188882.3,184558.2,0.0,0.0
2.4,599.0,185750.7,197816.2,221631.1,268732.3,189295.6,191565.8,188880.2,184554.2,0.0,0.0
2.4,600.0,185756.5,197817.8,221635.2,268739.0,189299.8,191567.3,188882.3,184558.2,0.0,0.0
2.4,601.0,185757.7,197816.0,221633.3,268737.3,189300.6,191569.2,188882.3,184560.2,0.0,0.0
2.4,602.0,185755.2,197812.5,221627.7,268729.9,189298.4,191562.5,188880.4,184559.0,0.0,0.0
2.4,603.0,185756.0,197812.0,221623.8,268718.4,189298.2,191563.4,188879.7,184553.3,0.0,0.0
2.4,604.0,185755.2,197809.0,221619.9,268708.4,189298.1,191563.6,188880.6,184551.7,0.0,0.0
2.4,605.0,185752.7,197806.3,221615.2,268700.9,189298.2,191563.9,188882.0,184552.4,0.0,0.0
2.4,606.0,185756.0,197807.9,221614.5,268703.4,189303.6,191568.6,188887.3,184560.4,0.0,0.0
2.4,607.0,185752.7,197804.1,221605.6,268688.4,189301.3,191566.2,188886.4,184559.5,0.0,0.0
2.4,608.0,185754.1,197809.0,221601.8,268674.3,189299.8,191567.6,188884.6,184555.1,0.0,0.0
2.4,609.0,185757.6,197813.1,221602.7,268668.8,189301.2,191566.6,188884.3,184556.8,0.0,0.0
2.4,610.0,185757.5,197811.0,221597.8,268658.2,189296.8,191561.5,188879.0,184551.1,0.0,0.0
2.4,611.0,185760.0,197814.2,221597.8,268653.9,189300.0,191566.0,188880.2,184553.8,0.0,0.0
2.4,612.0,185759.4,197818.2,221595.8,268649.0,189301.3,191568.3,188882.7,184555.8,0.0,0.0
2.4,613.0,185760.7,197820.9,221594.9,268640.0,189303.0,191571.3,188886.2,184556.5,0.0,0.0
2.5,614.0,185761.3,197820.4,221592.3,268633.8,189303.1,191570.1,188886.5,184556.7,0.0,0.0
2.5,615.0,185762.0,197816.5,221590.4,268633.2,189304.3,191569.0,188886.7,184559.2,0.0,0.0
2.5,616.0,185771.8,197822.8,221597.1,268646.8,189311.5,191573.6,188889.1,184567.1,0.0,0.0
2.5,617.0,185759.4,197819.8,221577.6,268598.5,189298.5,191568.2,188881.5,184557.5,0.0,0.0
2.5,618.0,185759.0,197817.5,221573.5,268594.7,189296.6,191565.7,188882.6,184555.1,0.0,0.0
2.5,619.0,185760.9,197818.0,221572.5,268594.1,189297.5,191565.2,188882.6,184555.1,0.0,0.0
2.5,620.0,185751.8,197809.0,221560.1,268577.4,189289.8,191560.7,188873.1,184544.1,0.0,0.0
2.5,621.0,185750.5,197810.7,221558.6,268577.2,189292.5,191566.6,188877.6,184550.1,0.0,0.0
2.5,622.0,185748.6,197809.0,221552.6,268566.8,189290.9,191564.7,188876.7,184549.9,0.0,0.0
2.5,623.0,185749.2,197809.0,221547.7,268554.3,189290.3,191566.3,188877.0,184548.6,0.0,0.0
2.5,624.0,185750.0,197810.6,221549.5,268549.0,189295.2,191569.5,188883.6,184554.8,0.0,0.0
2.5,625.0,185735.7,197793.6,221532.4,268534.4,189281.5,191554.1,188871.0,184545.3,0.0,0.0
2.5,626.0,185729.9,197782.0,221519.7,268527.1,189271.5,191542.6,188859.2,184537.3,0.0,0.0
2.5,627.0,185744.0,197801.8,221531.6,268531.1,189288.2,191560.6,188875.6,184551.5,0.0,0.0
2.5,628.0,185740.5,197802.3,221524.9,268512.7,189286.6,191559.6,188876.4,184547.7,0.0,0.0
2.5,629.0,185738.0,197801.2,221522.3,268505.9,189287.9,191560.4,188878.8,184548.7,0.0,0.0
2.5,630.0,185745.1,197815.5,221528.9,268503.9,189295.0,191570.5,188884.6,184552.6,0.0,0.0
2.5,631.0,185753.6,197825.7,221534.8,268507.8,189302.7,191578.2,188888.9,184560.0,0.0,0.0
2.5,632.0,185747.6,197818.1,221526.3,268499.3,189298.2,191572.6,188883.7,184556.1,0.0,0.0
2.5,633.0,185739.1,197802.3,221514.2,268493.9,189289.5,191559.6,188875.3,184547.5,0.0,0.0
2.5,634.0,185732.4,197794.7,221506.8,268489.4,189284.7,191553.4,188872.1,184543.9,0.0,0.0
2.5,635.0,185707.0,197781.7,221479.2,268427.4,189263.9,191540.9,188858.9,184528.8,0.0,0.0
2.5,636.0,185704.2,197777.9,221474.6,268428.3,189261.8,191540.1,188855.3,184527.9,0.0,0.0
2.5,637.0,185695.0,197770.0,221465.1,268423.7,189256.2,191534.6,188850.3,184526.0,0.0,0.0
2.5,638.0,185688.1,197760.8,221455.2,268413.0,189248.3,191521.4,188841.2,184517.8,0.0,0.0
2.6,639.0,185689.3,197760.5,221455.8,268415.9,189251.1,191524.3,188846.0,184520.9,0.0,0.0
2.6,640.0,185694.1,197765.2,221455.7,268410.3,189254.6,191532.5,188851.9,184526.1,0.0,0.0
2.6,641.0,185688.5,197762.2,221446.7,268388.6,189252.6,191534.5,188851.5,184524.1,0.0,0.0
2.6,642.0,185686.6,197762.3,221443.1,268380.2,189253.7,191534.4,188850.7,184527.0,0.0,0.0
2.6,643.0,185684.7,197762.1,221438.0,268371.4,189251.7,191531.5,188850.2,184524.5,0.0,0.0
2.6,644.0,185684.8,197767.5,221436.3,268364.9,189251.7,191531.5,188850.0,184522.2,0.0,0.0
2.6,645.0,185689.4,197777.0,221439.3,268365.3,189258.7,191537.3,188855.5,184530.4,0.0,0.0
2.6,646.0,185692.5,197773.4,221439.7,268358.8,189260.2,191538.9,188854.2,184527.3,0.0,0.0
2.6,647.0,185695.0,197771.4,221440.0,268353.3,189260.0,191539.5,188854.3,184527.0,0.0,0.0
2.6,648.0,185697.7,197779.1,221440.2,268344.6,189258.8,191538.7,188851.7,184524.3,0.0,0.0
2.6,649.0,185690.6,197770.4,221432.7,268333.5,189254.1,191532.5,188845.1,184516.7,0.0,0.0
2.6,650.0,185699.9,197775.7,221441.0,268352.3,189263.7,191538.2,188850.0,184523.6,0.0,0.0
2.6,651.0,185699.3,197773.4,221437.9,268345.7,189264.3,191538.7,188850.7,184525.3,0.0,0.0
2.6,652.0,185683.5,197761.6,221417.6,268299.9,189250.5,191530.6,188842.6,184516.4,0.0,0.0
2.6,653.0,185685.6,197764.5,221416.0,268296.1,189251.1,191530.0,188841.6,184515.3,0.0,0.0
2.6,654.0,185694.7,197770.4,221420.5,268298.4,189257.7,191535.4,188848.4,184518.4,0.0,0.0
2.6,655.0,185698.5,197774.5,221421.8,268295.3,189261.7,191538.5,188855.1,184521.5,0.0,0.0
2.6,656.0,185696.8,197773.2,221417.8,268291.9,189262.1,191535.8,188855.3,184524.7,0.0,0.0
2.6,657.0,185696.6,197769.8,221413.9,268284.8,189261.4,191535.1,188854.0,184523.4,0.0,0.0
2.6,658.0,185696.3,197771.5,221410.2,268276.1,189260.2,191535.0,188853.3,184521.3,0.0,0.0
2.6,659.0,185699.3,197779.6,221412.2,268274.9,189265.5,191538.8,188858.7,184527.8,0.0,0.0
2.6,660.0,185698.1,197774.3,221408.0,268270.9,189265.6,191537.3,188860.0,184528.4,0.0,0.0
2.6,661.0,185689.6,197766.7,221396.7,268251.4,189262.3,191539.1,188860.3,184525.5,0.0,0.0
2.6,662.0,185682.5,197761.4,221387.1,268234.7,189259.1,191539.2,188861.6,184527.2,0.0,0.0
2.6,663.0,185680.1,197760.6,221381.4,268228.6,189258.2,191539.3,188862.2,184529.2,0.0,0.0
2.7,664.0,185675.4,197759.8,221375.5,268218.3,189255.9,191539.5,188860.4,184526.4,0.0,0.0
2.7,665.0,185675.8,197760.1,221373.9,268215.0,189256.5,191540.4,188861.0,184528.5,0.0,0.0
2.7,666.0,185678.3,197761.2,221372.2,268213.2,189255.8,191540.1,188858.7,184531.7,0.0,0.0
2.7,667.0,185676.7,197763.0,221367.4,268205.7,189252.8,191538.0,188853.6,184531.2,0.0,0.0
2.7,668.0,185674.5,197752.9,221360.8,268196.0,189246.0,191528.3,188845.2,184525.1,0.0,0.0
2.7,669.0,185674.0,197754.8,221358.2,268184.8,189243.2,191527.2,188842.2,184519.5,0.0,0.0
2.7,670.0,185669.0,197751.0,221349.7,268166.9,189233.4,191517.6,188829.2,184507.5,0.0,0.0
2.7,671.0,185674.1,197752.9,221349.7,268163.6,189233.3,191515.8,188824.1,184507.3,0.0,0.0
2.7,672.0,185681.1,197760.5,221354.0,268166.4,189240.1,191520.5,188828.5,184512.7,0.0,0.0
2.7,673.0,185700.8,197775.1,221371.2,268194.1,189257.8,191530.4,188840.8,184524.6,0.0,0.0
2.7,674.0,185692.4,197771.5,221358.4,268159.2,189251.1,191524.4,188835.9,184516.5,0.0,0.0
2.7,675.0,185685.9,197763.9,221349.2,268135.5,189246.7,191521.5,188834.3,184515.6,0.0,0.0
2.7,676.0,185697.7,197771.5,221359.3,268153.1,189258.4,191532.5,188844.4,184527.3,0.0,0.0
2.7,677.0,185699.3,197773.1,221358.2,268151.6,189261.7,191537.4,188848.7,184526.3,0.0,0.0
2.7,678.0,185701.1,197776.4,221357.7,268145.7,189266.2,191540.9,188853.3,184528.8,0.0,0.0
2.7,679.0,185704.6,197781.6,221360.0,268139.8,189270.0,191544.9,188857.5,184531.8,0.0,0.0
2.7,680.0,185705.2,197782.5,221359.1,268132.2,189270.6,191545.5,188856.8,184531.2,0.0,0.0
2.7,681.0,185704.7,197784.9,221354.3,268123.1,189267.7,191543.5,188850.9,184526.4,0.0,0.0
2.7,682.0,185709.3,197786.8,221356.6,268124.6,189272.2,191544.5,188854.0,184532.7,0.0,0.0
2.7,683.0,185709.1,197784.1,221355.7,268125.1,189273.9,191545.9,188855.8,184531.9,0.0,0.0
2.7,684.0,185707.0,197784.3,221350.3,268108.8,189270.4,191543.8,188853.7,184526.0,0.0,0.0
2.7,685.0,185699.8,197781.7,221340.7,268086.6,189266.7,191541.4,188851.5,184526.5,0.0,0.0
2.7,686.0,185698.8,197783.2,221336.8,268082.9,189267.4,191541.8,188849.4,184527.0,0.0,0.0
2.7,687.0,185701.9,197781.9,221336.7,268084.7,189269.3,191543.6,188849.3,184527.9,0.0,0.0
2.7,688.0,185696.1,197777.2,221329.3,268072.8,189264.3,191537.7,188845.8,184524.7,0.0,0.0
2.8,689.0,185709.1,197790.2,221340.3,268091.7,189275.6,191543.5,188855.5,184534.6,0.0,0.0
2.8,690.0,185701.2,197785.8,221329.2,268060.4,189270.2,191544.9,188855.6,184531.2,0.0,0.0
2.8,691.0,185694.7,197773.1,221317.2,268038.6,189263.9,191540.7,188852.0,184526.3,0.0,0.0
2.8,692.0,185693.6,197769.2,221314.3,268041.0,189264.8,191539.5,188852.4,184527.9,0.0,0.0
2.8,693.0,185689.1,197767.6,221307.6,268031.2,189261.7,191538.3,188851.7,184523.8,0.0,0.0
2.8,694.0,185691.4,197769.7,221305.2,268025.9,189261.8,191540.0,188852.4,184522.6,0.0,0.0
2.8,695.0,185683.4,197759.8,221291.3,268008.1,189252.3,191532.5,188843.7,184512.0,0.0,0.0
2.8,696.0,185683.0,197761.4,221288.1,268006.3,189252.1,191527.9,188840.0,184516.2,0.0,0.0
2.8,697.0,185673.5,197749.9,221273.9,267989.9,189238.9,191514.1,188827.7,184507.0,0.0,0.0
2.8,698.0,185668.7,197737.2,221264.3,267974.9,189231.1,191507.6,188822.3,184497.0,0.0,0.0
2.8,699.0,185690.2,197762.7,221285.8,267993.0,189254.2,191528.8,188842.8,184517.1,0.0,0.0
2.8,700.0,185701.2,197780.6,221300.2,267996.4,189273.1,191548.9,188862.7,184536.1,0.0,0.0
2.8,701.0,185703.7,197786.9,221299.0,267992.0,189278.3,191554.3,188866.5,184542.6,0.0,0.0
2.8,702.0,185698.7,197774.9,221274.9,267981.5,189263.0,191537.1,188848.1,184523.8,0.0,0.0
2.8,703.0,185699.9,197770.1,221278.1,267990.6,189263.2,191536.1,188849.7,184523.4,0.0,0.0
2.8,704.0,185691.0,197765.9,221268.8,267944.9,189255.8,191536.8,188849.6,184517.8,0.0,0.0
2.8,705.0,185710.7,197785.0,221286.2,267960.1,189275.7,191558.6,188870.3,184539.8,0.0,0.0
2.8,706.0,185706.1,197778.7,221279.7,267958.0,189271.8,191552.3,188863.3,184536.3,0.0,0.0
2.8,707.0,185701.0,197769.4,221269.9,267949.0,189263.0,191541.8,188852.9,184528.8,0.0,0.0
2.8,708.0,185694.3,197761.9,221260.0,267934.9,189255.0,191533.3,188844.4,184520.2,0.0,0.0
2.8,709.0,185691.1,197758.0,221254.8,267927.0,189251.9,191529.5,188841.7,184517.3,0.0,0.0
2.8,710.0,185691.0,197755.6,221252.9,267921.2,189253.3,191527.3,188843.4,184519.3,0.0,0.0
2.8,711.0,185692.7,197759.2,221255.9,267923.7,189261.6,191534.9,188851.6,184532.1,0.0,0.0
2.8,712.0,185679.9,197745.3,221240.3,267906.9,189250.5,191524.1,188840.9,184523.1,0.0,0.0
2.8,713.0,185682.1,197742.3,221237.3,267902.6,189248.8,191520.1,188840.0,184521.0,0.0,0.0
2.9,714.0,185688.8,197757.2,221242.0,267898.3,189254.3,191528.0,188846.4,184522.7,0.0,0.0
2.9,715.0,185679.1,197751.2,221229.9,267876.6,189244.4,191519.7,188835.7,184509.5,0.0,0.0
2.9,716.0,185672.2,197740.2,221219.9,267868.8,189237.8,191511.9,188825.7,184504.6,0.0,0.0
2.9,717.0,185687.7,197753.4,221232.6,267881.0,189250.9,191523.6,188837.2,184518.9,0.0,0.0
2.9,718.0,185703.1,197768.1,221246.3,267893.3,189263.9,191535.1,188848.5,184529.7,0.0,0.0
2.9,719.0,185702.3,197768.2,221243.2,267882.8,189259.6,191530.5,188841.9,184518.7,0.0,0.0
2.9,720.0,185709.7,197775.9,221246.1,267883.1,189265.3,191536.5,188846.7,184522.9,0.0,0.0
2.9,721.0,185700.3,197769.4,221230.8,267841.3,189260.5,191540.1,188848.7,184522.4,0.0,0.0
2.9,722.0,185711.8,197777.5,221237.6,267852.7,189271.7,191549.4,188860.3,184534.5,0.0,0.0
2.9,723.0,185711.4,197779.5,221235.5,267851.3,189272.7,191551.0,188861.2,184537.2,0.0,0.0
2.9,724.0,185706.3,197776.4,221230.2,267844.4,189271.4,191549.0,188859.5,184535.7,0.0,0.0
2.9,725.0,185710.7,197778.7,221233.0,267844.2,189276.6,191551.4,188863.5,184539.8,0.0,0.0
2.9,726.0,185717.5,197787.6,221238.1,267845.6,189282.3,191556.6,188868.7,184544.3,0.0,0.0
2.9,727.0,185710.9,197773.9,221228.7,267836.4,189274.4,191545.6,188861.7,184540.8,0.0,0.0
2.9,728.0,185695.3,197753.2,221210.4,267814.4,189259.2,191528.0,188847.6,184526.4,0.0,0.0
2.9,729.0,185697.0,197755.4,221208.9,267806.9,189260.7,191530.0,188848.6,184523.8,0.0,0.0
2.9,730.0,185690.3,197754.0,221202.9,267795.6,189259.5,191530.4,188847.2,184521.8,0.0,0.0
2.9,731.0,185694.1,197763.0,221203.0,267791.7,189263.9,191533.9,188850.3,184524.2,0.0,0.0
2.9,732.0,185682.1,197747.8,221187.9,267779.3,189255.3,191527.1,188844.9,184518.3,0.0,0.0
2.9,733.0,185688.5,197755.5,221190.4,267776.8,189261.9,191536.3,188855.6,184528.2,0.0,0.0
2.9,734.0,185690.2,197760.5,221189.9,267770.4,189264.1,191539.2,188860.3,184530.3,0.0,0.0
2.9,735.0,185689.3,197763.6,221186.5,267762.1,189265.3,191542.5,188861.4,184527.9,0.0,0.0
2.9,736.0,185692.1,197765.3,221186.6,267765.5,189270.4,191546.9,188864.8,184532.6,0.0,0.0
2.9,737.0,185706.3,197779.3,221200.6,267787.8,189283.8,191559.6,188875.8,184547.0,0.0,0.0
2.9,738.0,185679.8,197761.6,221171.8,267731.4,189258.4,191540.4,188854.2,184524.5,0.0,0.0
3.0,739.0,185672.4,197751.8,221163.1,267720.1,189251.0,191531.9,188846.2,184516.2,0.0,0.0
3.0,740.0,185690.8,197771.5,221183.4,267751.5,189272.2,191551.4,188863.1,184535.8,0.0,0.0
3.0,741.0,185696.8,197778.4,221185.5,267744.9,189278.9,191562.1,188871.2,184543.7,0.0,0.0
3.0,742.0,185692.4,197767.7,221173.3,267720.6,189270.2,191555.2,188862.8,184535.8,0.0,0.0
3.0,743.0,185689.9,197757.8,221164.5,267710.1,189260.5,191540.2,188852.2,184529.8,0.0,0.0
3.0,744.0,185686.5,197752.7,221157.2,267699.7,189254.0,191532.6,188846.0,184524.4,0.0,0.0
3.0,745.0,185682.3,197750.9,221149.3,267686.4,189248.5,191528.3,188839.1,184517.5,0.0,0.0
3.0,746.0,185680.0,197744.9,221144.1,267679.7,189245.8,191524.9,188834.2,184517.1,0.0,0.0
3.0,747.0,185676.3,197743.8,221140.1,267676.0,189243.5,191522.6,188830.8,184516.4,0.0,0.0
3.0,748.0,185667.5,197739.3,221129.6,267662.5,189235.6,191512.8,188823.1,184507.2,0.0,0.0
3.0,749.0,185681.1,197755.0,221139.8,267664.2,189246.9,191522.1,188834.1,184510.8,0.0,0.0
3.0,750.0,185696.9,197770.3,221158.4,267684.7,189270.5,191544.4,188861.1,184536.3,0.0,0.0
3.0,751.0,185697.5,197772.8,221158.9,267679.4,189276.8,191552.6,188868.6,184541.9,0.0,0.0
3.0,752.0,185703.5,197777.2,221163.0,267693.3,189282.5,191554.4,188869.1,184546.7,0.0,0.0
3.0,753.0,185695.6,197768.7,221151.9,267675.7,189273.1,191543.5,188857.7,184536.4,0.0,0.0
3.0,754.0,185679.2,197757.4,221129.5,267624.8,189255.9,191531.7,188845.9,184519.6,0.0,0.0
3.0,755.0,185689.5,197763.6,221136.4,267640.5,189265.6,191539.9,188854.4,184527.8,0.0,0.0
3.0,756.0,185700.3,197766.9,221140.9,267646.4,189271.7,191544.9,188859.4,184535.5,0.0,0.0
3.0,757.0,185695.2,197763.2,221133.3,267631.7,189265.7,191541.8,188853.7,184528.3,0.0,0.0
3.0,758.0,185701.7,197768.8,221134.6,267624.9,189267.2,191544.9,188856.1,184528.0,0.0,0.0
3.0,759.0,185699.5,197768.3,221128.7,267612.3,189261.8,191540.4,188850.9,184523.6,0.0,0.0
3.0,760.0,185705.3,197771.9,221130.8,267617.3,189265.5,191542.0,188852.7,184528.3,0.0,0.0
3.0,761.0,185710.2,197774.8,221134.7,267615.6,189271.7,191548.7,188857.6,184531.7,0.0,0.0
3.0,762.0,185698.6,197767.3,221123.3,267593.3,189264.2,191542.9,188851.9,184525.6,0.0,0.0
3.0,763.0,185702.4,197770.4,221123.7,267593.9,189265.4,191544.3,188853.0,184526.5,0.0,0.0
3.1,764.0,185695.9,197761.9,221112.6,267579.3,189255.8,191533.3,188845.8,184518.9,0.0,0.0
3.1,765.0,185687.5,197752.9,221103.1,267568.1,189248.9,191522.8,188835.4,184511.0,0.0,0.0
3.1,766.0,185697.2,197763.7,221111.1,267576.9,189259.1,191532.9,188843.3,184521.3,0.0,0.0
3.1,767.0,185712.2,197774.4,221126.3,267596.7,189277.3,191550.5,188862.0,184540.6,0.0,0.0
3.1,768.0,185719.3,197777.7,221131.7,267605.5,189284.0,191555.6,188868.8,184541.9,0.0,0.0
3.1,769.0,185693.3,197762.8,221101.6,267543.6,189262.8,191544.2,188855.8,184523.6,0.0,0.0
3.1,770.0,185683.0,197752.1,221089.4,267531.5,189253.3,191534.7,188845.3,184516.2,0.0,0.0
3.1,771.0,185684.3,197748.7,221087.9,267535.5,189253.7,191530.4,188842.0,184517.5,0.0,0.0
3.1,772.0,185683.4,197739.5,221080.6,267527.0,189248.1,191525.3,188838.5,184516.6,0.0,0.0
3.1,773.0,185681.2,197739.1,221078.2,267521.2,189246.2,191524.0,188839.0,184517.2,0.0,0.0
3.1,774.0,185688.1,197739.1,221080.6,267521.0,189247.3,191523.7,188842.1,184516.4,0.0,0.0
3.1,775.0,185701.5,197751.8,221092.5,267527.7,189258.8,191536.4,188852.3,184525.4,0.0,0.0
3.1,776.0,185700.7,197755.6,221091.9,267517.7,189260.1,191539.3,188853.3,184527.3,0.0,0.0
3.1,777.0,185692.4,197751.2,221080.3,267495.9,189252.6,191532.3,188846.0,184521.2,0.0,0.0
3.1,778.0,185687.8,197751.5,221074.3,267483.6,189249.5,191529.8,188842.6,184516.2,0.0,0.0
3.1,779.0,185689.2,197751.8,221072.0,267478.7,189249.4,191528.8,188843.2,184515.5,0.0,0.0
3.1,780.0,185685.6,197751.2,221067.7,267471.8,189248.1,191526.8,188839.9,184512.6,0.0,0.0
3.1,781.0,185685.0,197747.3,221064.7,267467.1,189246.7,191522.4,188836.6,184511.6,0.0,0.0
3.1,782.0,185687.6,197746.2,221064.8,267466.7,189249.4,191522.7,188838.3,184515.8,0.0,0.0
3.1,783.0,185704.3,197763.2,221079.3,267479.6,189265.7,191536.1,188853.2,184528.3,0.0,0.0
3.1,784.0,185712.4,197772.3,221088.4,267498.3,189276.2,191544.5,188861.8,184536.4,0.0,0.0
3.1,785.0,185689.2,197747.6,221064.4,267461.7,189258.4,191530.8,188849.2,184522.4,0.0,0.0
3.1,786.0,185684.3,197747.0,221055.3,267438.4,189255.2,191532.5,188848.4,184521.3,0.0,0.0
3.1,787.0,185685.9,197750.9,221054.6,267442.3,189255.7,191531.1,188845.2,184521.1,0.0,0.0
3.1,788.0,185687.8,197750.3,221053.5,267439.8,189256.4,191528.3,188844.8,184522.1,0.0,0.0
3.2,789.0,185682.8,197740.3,221044.7,267431.2,189251.8,191523.4,188843.2,184518.9,0.0,0.0
3.2,790.0,185696.9,197757.4,221055.0,267435.1,189264.3,191539.8,188857.0,184529.7,0.0,0.0
3.2,791.0,185700.7,197762.0,221055.7,267430.8,189266.9,191541.6,188857.0,184529.6,0.0,0.0
3.2,792.0,185698.8,197759.6,221052.3,267423.3,189264.1,191536.5,188851.5,184525.6,0.0,0.0
3.2,793.0,185695.6,197758.7,221048.4,267414.1,189261.8,191532.6,188847.8,184520.2,0.0,0.0
3.2,794.0,185701.2,197761.6,221053.9,267417.8,189267.8,191535.2,188852.9,184526.3,0.0,0.0
3.2,795.0,185719.4,197782.5,221070.6,267424.2,189286.2,191555.0,188873.9,184542.8,0.0,0.0
3.2,796.0,185716.0,197783.5,221066.2,267411.7,189288.1,191560.2,188879.7,184544.1,0.0,0.0
3.2,797.0,185704.0,197772.3,221051.9,267395.8,189277.4,191552.1,188869.6,184533.5,0.0,0.0
3.2,798.0,185691.0,197760.1,221037.5,267380.0,189267.3,191541.6,188860.2,184526.4,0.0,0.0
3.2,799.0,185686.7,197756.3,221029.7,267368.8,189263.8,191536.0,188857.4,184524.9,0.0,0.0
3.2,800.0,185693.0,197759.3,221030.9,267368.3,189267.7,191542.5,188864.8,184531.9,0.0,0.0
3.2,801.0,185711.7,197773.5,221046.3,267393.8,189284.5,191560.1,188880.4,184549.8,0.0,0.0
3.2,802.0,185710.6,197778.2,221044.5,267385.1,189285.6,191565.1,188882.5,184553.5,0.0,0.0
3.2,803.0,185698.2,197770.5,221026.2,267343.0,189268.9,191555.4,188872.6,184539.0,0.0,0.0
3.2,804.0,185709.4,197777.0,221034.4,267352.2,189273.8,191560.0,188881.9,184542.9,0.0,0.0
3.2,805.0,185701.4,197763.7,221024.8,267341.2,189264.5,191549.4,188872.5,184535.3,0.0,0.0
3.2,806.0,185703.6,197762.2,221023.6,267340.1,189262.8,191542.6,188865.4,184535.4,0.0,0.0
3.2,807.0,185703.5,197762.8,221020.0,267330.5,189259.9,191539.5,188861.2,184532.0,0.0,0.0
3.2,808.0,185712.1,197772.8,221026.0,267331.2,189268.0,191545.2,188868.5,184536.1,0.0,0.0
3.2,809.0,185719.1,197784.3,221030.3,267330.0,189275.7,191552.6,188875.7,184538.1,0.0,0.0
3.2,810.0,185715.4,197781.1,221025.8,267329.0,189275.9,191551.1,188875.2,184539.0,0.0,0.0
3.2,811.0,185721.5,197784.1,221028.4,267332.3,189281.5,191552.3,188877.0,184544.4,0.0,0.0
3.2,812.0,185729.5,197795.6,221033.9,267330.8,189290.8,191563.0,188885.0,184549.8,0.0,0.0
3.2,813.0,185739.8,197808.6,221045.3,267341.9,189303.1,191575.3,188897.4,184560.1,0.0,0.0
3.3,814.0,185725.3,197795.5,221029.2,267317.3,189289.4,191559.2,188884.4,184543.2,0.0,0.0
3.3,815.0,185711.5,197786.1,221014.4,267291.1,189277.3,191551.2,188872.1,184529.4,0.0,0.0
3.3,816.0,185711.2,197781.8,221013.9,267290.1,189280.2,191555.6,188875.0,184535.6,0.0,0.0
3.3,817.0,185709.9,197780.5,221010.8,267288.1,189279.0,191554.8,188875.4,184536.0,0.0,0.0
3.3,818.0,185713.0,197784.2,221011.5,267285.8,189282.2,191556.8,188881.2,184539.2,0.0,0.0
3.3,819.0,185714.7,197786.5,221009.8,267280.2,189284.2,191557.8,188883.0,184539.8,0.0,0.0
3.3,820.0,185711.3,197781.3,221003.1,267273.8,189280.2,191554.4,188877.5,184536.1,0.0,0.0
3.3,821.0,185692.8,197762.8,220980.6,267251.2,189261.7,191536.4,188859.2,184521.5,0.0,0.0
3.3,822.0,185687.7,197757.8,220971.9,267243.0,189255.4,191529.3,188853.3,184515.6,0.0,0.0
3.3,823.0,185714.1,197777.5,220995.8,267274.9,189278.2,191546.2,188873.8,184536.8,0.0,0.0
3.3,824.0,185734.0,197798.9,221011.3,267267.8,189294.1,191564.2,188892.6,184551.6,0.0,0.0
3.3,825.0,185723.8,197798.1,220998.8,267229.5,189286.1,191559.6,188888.8,184543.0,0.0,0.0
3.3,826.0,185722.1,197784.0,220996.0,267237.8,189284.8,191551.2,188881.5,184543.1,0.0,0.0
3.3,827.0,185720.7,197782.4,220992.3,267232.6,189282.9,191549.6,188878.0,184541.3,0.0,0.0
3.3,828.0,185719.2,197783.3,220986.9,267222.6,189278.5,191546.5,188873.6,184533.7,0.0,0.0
3.3,829.0,185723.2,197788.8,220990.3,267222.2,189284.3,191555.1,188881.0,184540.9,0.0,0.0
3.3,830.0,185730.7,197799.9,220996.0,267226.1,189292.7,191562.6,188886.8,184548.5,0.0,0.0
3.3,831.0,185725.2,197792.4,220988.0,267216.3,189288.1,191558.6,188884.0,184544.5,0.0,0.0
3.3,832.0,185724.8,197788.4,220983.4,267210.1,189285.8,191557.8,188883.2,184543.1,0.0,0.0
3.3,833.0,185724.8,197786.9,220978.9,267205.2,189284.4,191555.3,188883.3,184544.7,0.0,0.0
3.3,834.0,185719.3,197782.8,220969.5,267194.1,189278.7,191549.4,188879.8,184539.8,0.0,0.0
3.3,835.0,185721.6,197784.6,220969.3,267192.6,189282.7,191549.7,188881.6,184543.7,0.0,0.0
3.3,836.0,185719.3,197780.1,220964.0,267184.8,189281.7,191548.5,188879.3,184543.3,0.0,0.0
3.3,837.0,185715.5,197777.2,220958.5,267175.4,189278.4,191546.7,188875.3,184539.1,0.0,0.0
3.3,838.0,185713.7,197780.5,220957.4,267169.9,189279.9,191546.8,188876.4,184541.5,0.0,0.0
3.4,839.0,185720.4,197790.4,220963.3,267170.0,189288.0,191556.6,188887.3,184549.4,0.0,0.0
3.4,840.0,185722.6,197790.6,220962.3,267165.3,189288.3,191557.1,188886.6,184547.7,0.0,0.0
3.4,841.0,185724.2,197793.2,220964.9,267172.6,189291.4,191555.9,188883.6,184550.0,0.0,0.0
3.4,842.0,185725.0,197785.5,220962.6,267171.4,189287.6,191549.6,188878.7,184543.5,0.0,0.0
3.4,843.0,185699.5,197767.5,220931.8,267109.0,189260.4,191530.2,188858.3,184518.4,0.0,0.0
3.4,844.0,185699.3,197771.0,220929.2,267109.2,189259.1,191527.4,188857.0,184518.7,0.0,0.0
3.4,845.0,185703.7,197769.1,220931.7,267115.1,189267.1,191535.0,188866.5,184528.0,0.0,0.0
3.4,846.0,185718.3,197781.9,220942.4,267122.6,189279.8,191547.9,188878.0,184543.1,0.0,0.0
3.4,847.0,185730.6,197794.6,220950.1,267127.1,189291.2,191560.8,188890.5,184553.8,0.0,0.0
3.4,848.0,185727.2,197792.3,220943.8,267118.1,189290.2,191561.1,188889.8,184549.9,0.0,0.0
3.4,849.0,185720.1,197787.4,220933.7,267106.7,189284.2,191554.5,188881.7,184541.8,0.0,0.0
3.4,850.0,185725.0,197789.8,220935.3,267107.2,189287.6,191555.3,188883.3,184544.9,0.0,0.0
3.4,851.0,185722.9,197789.1,220932.2,267101.8,189287.9,191555.4,188882.9,184547.1,0.0,0.0
3.4,852.0,185707.6,197776.6,220916.9,267084.3,189277.6,191544.4,188871.0,184536.3,0.0,0.0
3.4,853.0,185709.2,197780.1,220917.8,267081.4,189280.9,191548.0,188874.0,184536.4,0.0,0.0
3.4,854.0,185711.7,197785.8,220917.0,267074.1,189281.2,191550.3,188876.3,184537.7,0.0,0.0
3.4,855.0,185717.8,197788.3,220921.9,267077.2,189286.6,191554.1,188881.4,184548.4,0.0,0.0
3.4,856.0,185727.2,197794.9,220928.6,267079.5,189291.7,191559.9,188885.7,184552.4,0.0,0.0
3.4,857.0,185727.7,197792.9,220926.1,267069.4,189289.4,191558.3,188884.6,184549.5,0.0,0.0
3.4,858.0,185719.9,197781.8,220913.0,267052.7,189279.0,191547.1,188874.0,184540.3,0.0,0.0
3.4,859.0,185706.9,197769.5,220895.5,267031.1,189262.1,191530.8,188856.5,184522.9,0.0,0.0
3.4,860.0,185704.8,197765.9,220890.2,267025.1,189259.6,191527.7,188854.9,184520.9,0.0,0.0
3.4,861.0,185735.8,197793.4,220919.6,267066.2,189291.0,191556.5,188884.2,184550.9,0.0,0.0
3.4,862.0,185738.1,197804.3,220917.4,267038.2,189295.0,191567.4,188893.8,184554.2,0.0,0.0
3.4,863.0,185735.0,197799.9,220911.4,267023.9,189291.4,191563.9,188890.6,184550.8,0.0,0.0
3.5,864.0,185738.6,197798.8,220913.7,267026.7,189293.4,191563.9,188891.5,184550.8,0.0,0.0
3.5,865.0,185736.0,197797.5,220910.6,267023.4,189291.2,191560.6,188887.2,184547.0,0.0,0.0
3.5,866.0,185731.0,197795.4,220905.2,267018.1,189290.0,191559.9,188883.0,184547.6,0.0,0.0
3.5,867.0,185734.0,197799.8,220904.8,267016.0,189294.1,191560.5,188885.6,184551.5,0.0,0.0
3.5,868.0,185733.6,197797.4,220900.2,267007.1,189292.6,191561.2,188887.2,184548.9,0.0,0.0
3.5,869.0,185727.1,197790.4,220890.2,266989.9,189283.4,191553.2,188880.7,184539.3,0.0,0.0
3.5,870.0,185724.9,197786.0,220883.3,266983.8,189278.0,191544.5,188872.1,184535.4,0.0,0.0
3.5,871.0,185716.6,197776.7,220874.4,266975.3,189274.8,191542.6,188869.0,184533.6,0.0,0.0
3.5,872.0,185724.8,197787.4,220881.3,266976.8,189282.5,191550.6,188876.9,184541.2,0.0,0.0
3.5,873.0,185721.9,197786.5,220875.4,266964.1,189278.2,191547.3,188873.9,184536.7,0.0,0.0
3.5,874.0,185734.8,197798.1,220885.4,266972.3,189291.8,191563.1,188891.7,184553.0,0.0,0.0
3.5,875.0,185734.4,197800.2,220883.4,266969.9,189294.6,191568.2,188897.5,184557.4,0.0,0.0
3.5,876.0,185728.7,197796.2,220877.1,266964.0,189294.3,191567.3,188898.5,184559.4,0.0,0.0
3.5,877.0,185726.6,197790.9,220873.0,266969.2,189294.2,191566.1,188897.3,184558.1,0.0,0.0
3.5,878.0,185711.2,197778.2,220855.4,266937.9,189278.7,191552.0,188883.7,184544.0,0.0,0.0
3.5,879.0,185690.2,197762.1,220829.8,266892.2,189257.0,191532.3,188864.7,184525.2,0.0,0.0
3.5,880.0,185704.4,197772.7,220839.9,266906.9,189267.9,191540.3,188872.5,184533.0,0.0,0.0
3.5,881.0,185731.0,197791.6,220862.4,266929.5,189292.0,191565.6,188896.7,184556.5,0.0,0.0
3.5,882.0,185733.9,197795.9,220863.4,266930.2,189293.7,191569.1,188898.8,184560.2,0.0,0.0
3.5,883.0,185723.0,197785.1,220851.1,266913.0,189283.7,191557.2,188889.1,184550.4,0.0,0.0
3.5,884.0,185713.6,197778.0,220841.6,266898.2,189275.7,191547.5,188880.8,184541.3,0.0,0.0
3.5,885.0,185719.5,197784.2,220846.1,266900.8,189281.1,191549.4,188883.2,184546.2,0.0,0.0
3.5,886.0,185716.1,197781.0,220839.5,266890.6,189275.8,191544.1,188874.6,184541.2,0.0,0.0
3.5,887.0,185709.4,197773.2,220829.7,266874.0,189268.2,191536.5,188865.6,184532.1,0.0,0.0
3.5,888.0,185720.6,197783.4,220836.5,266875.4,189274.5,191543.5,188873.4,184537.3,0.0,0.0
3.6,889.0,185736.7,197799.2,220849.1,266881.9,189287.4,191556.1,188887.2,184550.1,0.0,0.0
3.6,890.0,185735.5,197794.0,220847.1,266880.4,189289.4,191560.0,188890.9,184554.2,0.0,0.0
3.6,891.0,185734.9,197792.3,220845.0,266877.6,189292.4,191565.7,188895.0,184560.4,0.0,0.0
3.6,892.0,185727.7,197785.9,220835.1,266861.6,189285.9,191559.9,188888.3,184553.5,0.0,0.0
3.6,893.0,185725.4,197783.1,220829.8,266859.4,189283.2,191554.1,188884.1,184549.2,0.0,0.0
3.6,894.0,185722.4,197781.9,220822.5,266847.5,189278.5,191551.0,188879.9,184542.6,0.0,0.0
3.6,895.0,185726.4,197786.8,220822.6,266847.5,189281.5,191556.3,188883.8,184548.3,0.0,0.0
3.6,896.0,185730.3,197788.4,220826.4,266862.8,189285.7,191557.2,188880.9,184550.4,0.0,0.0
3.6,897.0,185716.4,197774.6,220810.4,266835.7,189271.1,191544.3,188864.4,184535.6,0.0,0.0
3.6,898.0,185703.7,197768.3,220795.5,266797.4,189259.2,191534.3,188854.4,184518.7,0.0,0.0
3.6,899.0,185721.2,197783.8,220812.1,266809.7,189276.1,191546.9,188870.7,184533.1,0.0,0.0
3.6,900.0,185738.9,197807.4,220829.5,266824.9,189296.8,191568.8,188891.7,184552.7,0.0,0.0
3.6,901.0,185747.3,197809.7,220832.6,266833.2,189303.5,191573.3,188897.5,184559.2,0.0,0.0
3.6,902.0,185743.6,197802.9,220826.2,266824.8,189298.4,191566.3,188889.7,184553.4,0.0,0.0
3.6,903.0,185728.9,197790.7,220811.8,266805.4,189286.1,191554.5,188877.3,184539.8,0.0,0.0
3.6,904.0,185712.3,197776.6,220793.8,266781.6,189270.2,191539.6,188864.5,184522.1,0.0,0.0
3.6,905.0,185716.9,197781.7,220795.7,266783.8,189276.3,191547.7,188873.4,184531.0,0.0,0.0
3.6,906.0,185732.7,197796.3,220805.7,266794.6,189290.5,191565.0,188890.0,184548.8,0.0,0.0
3.6,907.0,185725.4,197788.5,220794.2,266779.2,189283.4,191559.6,188885.1,184544.3,0.0,0.0
3.6,908.0,185719.6,197780.9,220786.0,266774.0,189277.3,191550.5,188877.9,184539.3,0.0,0.0
3.6,909.0,185721.2,197786.7,220787.0,266768.2,189277.0,191547.1,188874.7,184534.2,0.0,0.0
3.6,910.0,185721.4,197779.4,220786.7,266764.9,189276.9,191545.7,188875.0,184537.6,0.0,0.0
3.6,911.0,185727.6,197784.0,220794.6,266783.6,189284.9,191550.3,188877.1,184544.4,0.0,0.0
3.6,912.0,185729.7,197791.8,220796.8,266773.1,189290.1,191555.8,188879.6,184545.5,0.0,0.0
3.6,913.0,185726.2,197792.6,220789.5,266737.9,189287.4,191556.1,188880.5,184540.5,0.0,0.0
3.7,914.0,185735.7,197803.0,220798.8,266750.6,189296.1,191562.9,188886.2,184547.7,0.0,0.0
3.7,915.0,185733.0,197797.3,220793.0,266744.2,189290.9,191554.7,188879.9,184543.0,0.0,0.0
3.7,916.0,185734.8,197797.1,220792.7,266741.3,189291.4,191553.9,188878.6,184543.1,0.0,0.0
3.7,917.0,185730.3,197793.8,220785.8,266733.1,189286.6,191549.4,188873.7,184537.8,0.0,0.0
3.7,918.0,185728.1,197787.8,220778.2,266724.0,189282.0,191545.8,188872.0,184534.8,0.0,0.0
3.7,919.0,185725.0,197785.0,220771.6,266714.1,189278.6,191546.6,188871.8,184531.8,0.0,0.0
3.7,920.0,185718.9,197777.0,220762.5,266707.6,189271.0,191536.5,188861.5,184525.6,0.0,0.0
3.7,921.0,185712.2,197768.6,220751.3,266695.4,189262.1,191528.4,188853.1,184519.1,0.0,0.0
3.7,922.0,185720.1,197777.1,220754.9,266692.2,189268.7,191542.3,188864.4,184524.5,0.0,0.0
3.7,923.0,185738.6,197800.5,220768.9,266694.8,189286.5,191564.6,188887.2,184541.0,0.0,0.0
3.7,924.0,185737.0,197795.6,220763.2,266687.2,189282.4,191560.2,188884.4,184535.7,0.0,0.0
3.7,925.0,185727.2,197784.6,220752.6,266676.7,189274.4,191548.5,188872.6,184527.9,0.0,0.0
3.7,926.0,185721.9,197783.9,220749.1,266669.4,189274.0,191547.2,188869.4,184527.2,0.0,0.0
3.7,927.0,185727.0,197794.0,220755.9,266670.9,189281.8,191553.9,188875.5,184534.9,0.0,0.0
3.7,928.0,185735.7,197796.9,220758.3,266667.6,189284.5,191553.2,188876.4,184534.8,0.0,0.0
3.7,929.0,185736.6,197794.3,220757.2,266663.7,189285.6,191553.0,188877.0,184535.4,0.0,0.0
3.7,930.0,185736.4,197796.9,220754.8,266660.7,189285.3,191552.2,188874.0,184533.1,0.0,0.0
3.7,931.0,185742.2,197797.8,220758.6,266676.1,189290.1,191553.5,188875.2,184540.6,0.0,0.0
3.7,932.0,185722.8,197777.8,220737.1,266640.9,189273.8,191539.3,188861.6,184528.9,0.0,0.0
3.7,933.0,185708.4,197766.7,220717.8,266603.0,189258.0,191527.1,188850.0,184515.0,0.0,0.0
3.7,934.0,185715.5,197775.1,220725.1,266616.1,189266.3,191537.3,188860.5,184522.9,0.0,0.0
3.7,935.0,185725.9,197788.3,220733.8,266620.5,189277.0,191549.2,188871.2,184531.4,0.0,0.0
3.7,936.0,185734.8,197791.3,220739.2,266625.4,189283.3,191555.6,188875.7,184535.9,0.0,0.0
3.7,937.0,185731.7,197787.1,220732.3,266612.3,189277.3,191550.7,188868.8,184525.2,0.0,0.0
3.7,938.0,185730.0,197785.0,220728.5,266605.2,189274.7,191546.1,188867.6,184523.0,0.0,0.0
3.8,939.0,185741.0,197797.6,220737.0,266608.7,189286.3,191557.5,188880.8,184534.2,0.0,0.0
3.8,940.0,185745.6,197801.4,220740.8,266619.1,189292.9,191561.7,188884.8,184541.5,0.0,0.0
3.8,941.0,185739.6,197792.9,220733.6,266616.6,189289.1,191555.6,188879.8,184540.9,0.0,0.0
3.8,942.0,185731.3,197790.0,220722.7,266597.5,189282.0,191550.8,188873.0,184535.6,0.0,0.0
3.8,943.0,185732.5,197795.7,220722.1,266586.8,189282.7,191552.5,188874.6,184536.6,0.0,0.0
3.8,944.0,185738.7,197798.0,220725.3,266587.6,189286.0,191555.0,188878.7,184537.2,0.0,0.0
3.8,945.0,185732.8,197791.3,220718.7,266581.5,189282.1,191550.1,188873.6,184533.5,0.0,0.0
3.8,946.0,185724.0,197781.7,220706.3,266566.0,189273.5,191542.6,188865.8,184526.7,0.0,0.0
3.8,947.0,185722.0,197779.6,220701.6,266559.8,189271.8,191540.6,188863.6,184522.8,0.0,0.0
3.8,948.0,185724.0,197782.8,220700.8,266552.3,189273.9,191544.1,188867.7,184523.8,0.0,0.0
3.8,949.0,185737.0,197797.7,220711.7,266556.6,189287.6,191560.7,188884.0,184539.3,0.0,0.0
3.8,950.0,185742.4,197802.0,220713.9,266559.1,189293.3,191565.4,188888.9,184544.6,0.0,0.0
3.8,951.0,185744.7,197802.9,220713.8,266568.7,189291.6,191560.8,188880.8,184539.5,0.0,0.0
3.8,952.0,185735.3,197794.4,220700.9,266541.2,189283.7,191556.5,188876.6,184535.9,0.0,0.0
3.8,953.0,185736.8,197799.4,220699.7,266520.2,189287.4,191565.1,188887.5,184541.5,0.0,0.0
3.8,954.0,185742.5,197802.6,220703.6,266533.8,189289.5,191563.9,188887.6,184542.6,0.0,0.0
3.8,955.0,185727.4,197782.4,220686.0,266512.6,189272.1,191545.2,188869.2,184522.7,0.0,0.0
3.8,956.0,185717.8,197772.6,220674.4,266499.8,189262.5,191533.3,188857.0,184511.8,0.0,0.0
3.8,957.0,185734.4,197793.6,220690.2,266511.5,189281.2,191554.5,188876.8,184532.8,0.0,0.0
3.8,958.0,185742.2,197800.5,220696.3,266515.8,189289.1,191562.2,188884.8,184541.0,0.0,0.0
3.8,959.0,185736.2,197784.6,220686.1,266504.6,189280.7,191550.2,188875.7,184532.5,0.0,0.0
3.8,960.0,185737.3,197788.2,220685.4,266500.7,189281.5,191551.8,188876.4,184535.0,0.0,0.0
3.8,961.0,185739.2,197792.3,220686.2,266501.7,189285.2,191556.8,188879.9,184540.6,0.0,0.0
3.8,962.0,185741.7,197795.9,220686.4,266498.5,189290.8,191563.9,188887.1,184545.5,0.0,0.0
3.8,963.0,185738.4,197796.4,220682.8,266489.9,189291.1,191563.5,188888.1,184544.9,0.0,0.0
3.9,964.0,185730.2,197787.4,220670.4,266473.8,189281.2,191551.9,188877.4,184532.9,0.0,0.0
3.9,965.0,185718.7,197778.3,220657.5,266463.5,189271.9,191540.9,188867.5,184525.6,0.0,0.0
3.9,966.0,185727.9,197783.8,220665.0,266485.6,189280.5,191548.0,188873.4,184535.9,0.0,0.0
3.9,967.0,185740.4,197799.3,220674.1,266483.1,189293.5,191567.6,188890.0,184551.0,0.0,0.0
3.9,968.0,185733.3,197793.8,220662.5,266454.8,189285.4,191563.2,188886.2,184542.6,0.0,0.0
3.9,969.0,185727.0,197787.5,220652.0,266443.9,189274.8,191551.1,188873.0,184530.5,0.0,0.0
3.9,970.0,185729.0,197785.8,220652.0,266440.8,189278.0,191552.8,188876.4,184536.6,0.0,0.0
3.9,971.0,185726.2,197779.1,220649.1,266438.9,189276.2,191548.3,188872.1,184534.0,0.0,0.0
3.9,972.0,185727.6,197782.2,220649.5,266436.1,189275.6,191549.2,188872.6,184531.5,0.0,0.0
3.9,973.0,185735.2,197787.5,220654.7,266437.4,189282.1,191556.3,188880.6,184536.7,0.0,0.0
3.9,974.0,185732.5,197786.7,220649.6,266429.3,189278.5,191551.2,188876.5,184532.9,0.0,0.0
3.9,975.0,185727.9,197786.6,220642.7,266418.6,189274.8,191546.3,188871.4,184528.3,0.0,0.0
3.9,976.0,185720.2,197774.1,220630.8,266406.2,189267.8,191539.6,188865.8,184526.3,0.0,0.0
3.9,977.0,185731.6,197781.5,220637.1,266414.6,189278.4,191550.9,188877.4,184540.2,0.0,0.0
3.9,978.0,185724.8,197775.2,220625.8,266398.3,189268.8,191542.0,188866.7,184524.7,0.0,0.0
3.9,979.0,185724.1,197774.5,220623.1,266390.7,189268.1,191541.6,188866.2,184523.1,0.0,0.0
3.9,980.0,185723.2,197776.2,220621.0,266384.9,189269.7,191544.0,188866.6,184523.9,0.0,0.0
3.9,981.0,185727.5,197780.1,220623.7,266383.6,189274.0,191547.2,188868.6,184526.5,0.0,0.0
3.9,982.0,185722.5,197776.0,220619.8,266376.3,189272.3,191544.1,188864.8,184524.2,0.0,0.0
3.9,983.0,185727.9,197781.6,220627.1,266389.9,189278.9,191546.9,188868.7,184528.3,0.0,0.0
3.9,984.0,185735.9,197788.3,220633.5,266387.4,189286.3,191555.6,188878.1,184533.1,0.0,0.0
3.9,985.0,185722.2,197777.6,220615.5,266346.5,189273.7,191546.2,188870.4,184522.1,0.0,0.0
3.9,986.0,185729.1,197780.3,220618.3,266359.8,189277.7,191545.9,188870.9,184526.3,0.0,0.0
3.9,987.0,185733.9,197783.5,220615.7,266357.2,189279.1,191549.2,188872.4,184528.2,0.0,0.0
3.9,988.0,185740.0,197789.5,220614.9,266355.1,189280.0,191551.2,188874.6,184531.8,0.0,0.0
4.0,989.0,185744.1,197796.0,220616.3,266349.8,189280.9,191551.9,188875.5,184532.7,0.0,0.0
4.0,990.0,185744.1,197795.0,220614.7,266345.1,189280.6,191553.2,188876.9,184532.1,0.0,0.0
4.0,991.0,185739.1,197776.8,220608.0,266338.2,189276.2,191548.5,188872.5,184526.7,0.0,0.0
4.0,992.0,185748.0,197791.3,220617.0,266342.0,189285.1,191557.4,188880.2,184534.6,0.0,0.0
4.0,993.0,185745.9,197793.7,220616.1,266336.5,189285.3,191555.3,188880.4,184535.5,0.0,0.0
4.0,994.0,185738.7,197790.9,220611.1,266326.5,189280.9,191549.5,188873.9,184528.8,0.0,0.0
4.0,995.0,185732.7,197787.4,220605.8,266320.4,189278.7,191548.0,188870.4,184527.8,0.0,0.0
4.0,996.0,185734.1,197788.4,220604.1,266316.4,189279.1,191549.7,188868.5,184524.6,0.0,0.0
4.0,997.0,185738.4,197792.6,220605.8,266317.0,189283.7,191553.2,188871.6,184529.0,0.0,0.0
4.0,998.0,185724.1,197781.6,220588.7,266298.0,189271.4,191543.1,188863.1,184518.9,0.0,0.0
4.0,999.0,185721.1,197776.1,220580.4,266283.3,189265.5,191535.9,188860.2,184512.0,0.0,0.0
4.0,1000.0,185728.7,197781.3,220585.4,266282.3,189273.2,191545.2,188869.9,184518.6,0.0,0.0
4.0,1001.0,185747.6,197795.5,220598.8,266301.0,189288.4,191560.4,188884.6,184538.1,0.0,0.0
4.0,1002.0,185756.9,197807.0,220604.4,266304.6,189298.2,191572.4,188897.0,184550.8,0.0,0.0
4.0,1003.0,185757.5,197808.4,220602.8,266302.2,189299.1,191572.4,188897.1,184549.9,0.0,0.0
4.0,1004.0,185746.5,197801.6,220590.6,266279.0,189287.6,191562.0,188884.6,184536.4,0.0,0.0
4.0,1005.0,185731.8,197787.7,220573.8,266242.0,189275.7,191554.5,188875.8,184527.4,0.0,0.0
4.0,1006.0,185748.1,197799.4,220589.9,266270.3,189292.2,191569.6,188888.7,184540.0,0.0,0.0
4.0,1007.0,185758.1,197814.5,220599.6,266278.4,189304.2,191579.8,188898.4,184549.7,0.0,0.0
4.0,1008.0,185756.5,197813.0,220597.3,266273.0,189302.0,191574.9,188896.0,184547.3,0.0,0.0
4.0,1009.0,185748.2,197802.9,220587.4,266259.4,189292.1,191563.0,188885.9,184538.4,0.0,0.0
4.0,1010.0,185739.8,197790.9,220576.2,266246.3,189283.0,191552.1,188876.4,184529.9,0.0,0.0
4.0,1011.0,185742.8,197791.8,220576.3,266245.0,189283.8,191550.8,188874.3,184529.4,0.0,0.0
4.0,1012.0,185738.6,197784.1,220567.6,266238.2,189277.8,191543.1,188866.2,184524.6,0.0,0.0
4.0,1013.0,185736.1,197784.1,220560.3,266226.0,189272.9,191540.0,188862.5,184518.8,0.0,0.0
4.1,1014.0,185735.5,197782.6,220558.1,266217.8,189270.8,191540.0,188862.7,184517.0,0.0,0.0
4.1,1015.0,185735.8,197782.6,220556.2,266211.0,189270.9,191544.3,188866.2,184518.2,0.0,0.0
4.1,1016.0,185725.6,197768.8,220541.2,266196.2,189257.4,191533.3,188852.7,184506.3,0.0,0.0
4.1,1017.0,185725.2,197770.6,220537.9,266189.0,189256.9,191533.3,188851.9,184506.6,0.0,0.0
4.1,1018.0,185763.9,197806.1,220577.4,266237.4,189297.0,191566.6,188889.9,184548.6,0.0,0.0
4.1,1019.0,185765.5,197815.5,220582.2,266229.2,189304.4,191577.2,188898.3,184550.2,0.0,0.0
4.1,1020.0,185751.6,197807.8,220566.0,266191.2,189293.6,191570.5,188889.9,184538.1,0.0,0.0
4.1,1021.0,185755.9,197807.3,220568.6,266199.7,189297.1,191569.3,188888.4,184541.9,0.0,0.0
4.1,1022.0,185756.5,197807.7,220566.5,266194.1,189297.9,191569.5,188888.2,184544.4,0.0,0.0
4.1,1023.0,185753.4,197803.5,220559.1,266182.0,189294.4,191566.6,188888.0,184540.6,0.0,0.0
4.1,1024.0,185743.7,197796.0,220545.9,266166.8,189283.6,191558.7,188879.0,184525.8,0.0,0.0
4.1,1025.0,185742.9,197799.3,220541.8,266164.1,189283.0,191562.5,188878.1,184524.9,0.0,0.0
4.1,1026.0,185733.7,197789.3,220530.0,266158.0,189275.4,191556.0,188869.2,184522.3,0.0,0.0
4.1,1027.0,185732.9,197790.5,220527.0,266153.8,189274.9,191555.2,188869.2,184523.8,0.0,0.0
4.1,1028.0,185744.2,197804.4,220538.0,266162.7,189287.4,191568.2,188887.5,184539.1,0.0,0.0
4.1,1029.0,185753.4,197811.3,220546.0,266168.7,189297.4,191577.6,188900.0,184546.8,0.0,0.0
4.1,1030.0,185746.8,197802.7,220538.9,266155.7,189291.1,191570.5,188892.0,184537.4,0.0,0.0
4.1,1031.0,185745.9,197801.3,220537.0,266151.3,189288.2,191567.0,188886.5,184535.8,0.0,0.0
4.1,1032.0,185746.1,197799.7,220534.6,266146.7,189286.0,191562.4,188882.8,184537.0,0.0,0.0
4.1,1033.0,185745.1,197793.1,220529.4,266132.3,189283.0,191558.8,188880.5,184530.4,0.0,0.0
4.1,1034.0,185743.9,197793.2,220524.9,266125.5,189281.4,191555.7,188878.1,184525.1,0.0,0.0
4.1,1035.0,185743.4,197796.7,220521.6,266119.1,189282.2,191556.1,188875.5,184523.2,0.0,0.0
4.1,1036.0,185731.3,197785.2,220505.2,266102.7,189270.2,191545.8,188863.2,184514.0,0.0,0.0
4.1,1037.0,185729.1,197779.4,220499.0,266102.5,189267.1,191542.4,188859.9,184513.5,0.0,0.0
4.1,1038.0,185752.2,197803.2,220522.9,266134.5,189291.1,191564.1,188883.1,184535.8,0.0,0.0
4.2,1039.0,185759.4,197812.0,220528.5,266118.3,189301.8,191579.1,188901.4,184549.0,0.0,0.0
4.2,1040.0,185750.8,197805.2,220518.6,266099.8,189294.8,191574.3,188895.0,184541.0,0.0,0.0
4.2,1041.0,185743.2,197795.7,220509.9,266093.5,189288.5,191566.3,188885.1,184534.8,0.0,0.0
4.2,1042.0,185753.8,197805.6,220517.3,266101.7,189299.4,191576.1,188894.1,184545.8,0.0,0.0
4.2,1043.0,185744.2,197797.2,220504.1,266086.7,189288.1,191564.7,188882.2,184533.1,0.0,0.0
4.2,1044.0,185732.3,197787.2,220489.6,266071.0,189274.9,191552.1,188869.0,184520.1,0.0,0.0
4.2,1045.0,185737.9,197791.7,220493.2,266078.1,189281.6,191556.8,188874.7,184527.2,0.0,0.0
4.2,1046.0,185751.7,197806.0,220505.5,266084.6,189296.3,191570.6,188887.3,184542.5,0.0,0.0
4.2,1047.0,185755.5,197812.3,220507.4,266081.2,189300.3,191575.2,188891.1,184547.2,0.0,0.0
4.2,1048.0,185753.4,197804.8,220505.5,266077.0,189297.7,191570.2,188887.6,184544.9,0.0,0.0
4.2,1049.0,185746.3,197795.9,220496.5,266060.3,189288.3,191559.0,188879.7,184533.1,0.0,0.0
4.2,1050.0,185745.1,197795.6,220491.5,266052.5,189283.9,191553.2,188874.6,184530.0,0.0,0.0
4.2,1051.0,185745.9,197787.1,220490.3,266062.9,189285.6,191552.6,188873.7,184533.7,0.0,0.0
4.2,1052.0,185761.4,197801.0,220505.0,266088.0,189300.0,191567.0,188887.7,184549.5,0.0,0.0
4.2,1053.0,185749.9,197800.7,220489.0,266038.0,189291.8,191567.3,188888.2,184544.4,0.0,0.0
4.2,1054.0,185743.8,197798.5,220480.3,266019.6,189286.5,191562.7,188884.6,184536.8,0.0,0.0
4.2,1055.0,185742.2,197800.2,220479.3,266021.5,189287.3,191562.6,188885.0,184536.4,0.0,0.0
4.2,1056.0,185747.1,197800.3,220482.3,266025.7,189292.3,191568.8,188889.5,184540.2,0.0,0.0
4.2,1057.0,185749.3,197803.8,220482.0,266020.4,189294.3,191572.7,188891.1,184539.7,0.0,0.0
4.2,1058.0,185739.3,197792.4,220469.9,266005.5,189281.6,191557.0,188876.4,184526.7,0.0,0.0
4.2,1059.0,185745.1,197796.0,220473.5,266007.8,189284.8,191558.8,188878.0,184530.2,0.0,0.0
4.2,1060.0,185754.2,197802.7,220480.0,266010.8,189293.0,191568.5,188886.5,184538.3,0.0,0.0
4.2,1061.0,185760.6,197808.3,220483.7,266012.6,189299.0,191575.7,188891.4,184542.6,0.0,0.0
4.2,1062.0,185756.9,197803.4,220477.5,265999.3,189291.8,191567.3,188884.0,184534.4,0.0,0.0
4.2,1063.0,185758.7,197806.8,220477.9,265995.5,189293.1,191568.2,188886.9,184536.1,0.0,0.0
4.3,1064.0,185757.8,197810.1,220477.1,265992.3,189295.6,191569.8,188888.7,184537.4,0.0,0.0
4.3,1065.0,185750.4,197805.8,220470.5,265985.7,189292.5,191565.1,188882.1,184535.8,0.0,0.0
4.3,1066.0,185752.3,197811.6,220468.4,265987.8,189296.6,191570.0,188884.8,184541.3,0.0,0.0
4.3,1067.0,185752.2,197812.0,220464.4,265982.3,189298.5,191570.4,188888.6,184546.2,0.0,0.0
4.3,1068.0,185742.9,197796.4,220455.3,265973.4,189288.4,191557.8,188879.5,184536.4,0.0,0.0
4.3,1069.0,185750.8,197805.4,220461.6,265978.9,189292.3,191560.4,188883.1,184539.2,0.0,0.0
4.3,1070.0,185736.6,197794.4,220443.3,265936.0,189279.7,191555.0,188877.8,184531.8,0.0,0.0
4.3,1071.0,185746.9,197792.2,220450.7,265958.6,189288.9,191561.9,188886.4,184544.5,0.0,0.0
4.3,1072.0,185745.9,197792.0,220445.7,265944.7,189283.3,191557.1,188879.6,184536.4,0.0,0.0
4.3,1073.0,185747.0,197794.7,220443.8,265933.8,189282.1,191556.3,188878.7,184534.1,0.0,0.0
4.3,1074.0,185740.4,197789.9,220436.6,265922.8,189274.1,191546.7,188868.9,184522.7,0.0,0.0
4.3,1075.0,185732.2,197784.0,220427.5,265909.8,189266.3,191538.1,188857.3,184510.6,0.0,0.0
4.3,1076.0,185742.1,197794.9,220437.3,265920.5,189279.8,191552.1,188871.0,184524.6,0.0,0.0
4.3,1077.0,185766.1,197819.4,220459.5,265939.3,189306.0,191578.9,188898.5,184551.7,0.0,0.0
4.3,1078.0,185762.9,197819.4,220455.9,265933.4,189305.7,191581.0,188899.5,184549.2,0.0,0.0
4.3,1079.0,185756.9,197814.9,220450.8,265922.6,189300.3,191575.4,188892.9,184539.2,0.0,0.0
4.3,1080.0,185764.2,197823.4,220457.0,265924.6,189307.9,191584.2,188899.4,184544.9,0.0,0.0
4.3,1081.0,185767.1,197826.6,220457.5,265923.0,189309.8,191585.7,188899.3,184548.2,0.0,0.0
4.3,1082.0,185762.2,197820.8,220450.3,265915.8,189305.3,191579.5,188893.2,184545.0,0.0,0.0
4.3,1083.0,185763.8,197821.8,220449.4,265914.9,189307.3,191581.4,188897.5,184548.3,0.0,0.0
4.3,1084.0,185774.1,197833.6,220459.9,265936.7,189317.6,191590.0,188907.9,184557.5,0.0,0.0
4.3,1085.0,185751.6,197811.1,220431.7,265890.7,189295.6,191570.0,188889.7,184539.8,0.0,0.0
4.3,1086.0,185736.8,197791.1,220411.5,265864.7,189282.9,191556.7,188880.2,184534.1,0.0,0.0
4.3,1087.0,185746.4,197796.0,220418.9,265882.1,189289.1,191558.3,188884.6,184541.1,0.0,0.0
4.3,1088.0,185744.5,197790.9,220413.9,265876.3,189284.8,191552.0,188881.5,184535.8,0.0,0.0
4.4,1089.0,185750.4,197801.3,220417.4,265873.0,189288.5,191555.4,188885.7,184535.9,0.0,0.0
4.4,1090.0,185753.0,197803.2,220418.5,265861.8,189289.4,191555.5,188884.7,184535.9,0.0,0.0
4.4,1091.0,185741.3,197789.6,220405.9,265798.3,189279.1,191546.9,188871.7,184526.9,0.0,0.0
4.4,1092.0,185747.1,197792.8,220410.1,265751.2,189282.6,191548.9,188874.5,184531.6,0.0,0.0
4.4,1093.0,185760.7,197811.7,220424.5,265762.7,189298.7,191565.4,188889.5,184545.4,0.0,0.0
4.4,1094.0,185765.4,197820.9,220429.4,265772.4,189305.5,191572.7,188895.3,184545.8,0.0,0.0
4.4,1095.0,185762.8,197820.1,220423.9,265758.8,189303.5,191574.2,188894.4,184543.6,0.0,0.0
4.4,1096.0,185760.4,197814.1,220416.2,265779.5,189298.6,191570.9,188889.1,184540.7,0.0,0.0
4.4,1097.0,185765.8,197817.1,220416.8,265800.0,189300.9,191573.5,188889.9,184544.9,0.0,0.0
4.4,1098.0,185758.6,197808.5,220406.3,265762.2,189293.5,191565.9,188884.2,184540.5,0.0,0.0
4.4,1099.0,185757.2,197807.0,220403.9,265727.5,189292.2,191565.1,188885.6,184537.3,0.0,0.0
4.4,1100.0,185768.0,197819.8,220417.2,265765.7,189307.1,191578.9,188899.4,184553.3,0.0,0.0
4.4,1101.0,185747.1,197807.5,220394.5,265741.8,189291.4,191569.4,188887.3,184539.9,0.0,0.0
4.4,1102.0,185743.4,197797.7,220390.8,265755.8,189290.0,191566.6,188887.0,184541.0,0.0,0.0
4.4,1103.0,185742.0,197791.7,220388.0,265764.9,189287.8,191561.2,188883.3,184535.8,0.0,0.0
4.4,1104.0,185744.2,197796.8,220386.7,265765.5,189289.0,191563.3,188884.1,184535.6,0.0,0.0
4.4,1105.0,185741.0,197793.0,220379.6,265761.0,189283.4,191555.8,188877.4,184529.9,0.0,0.0
4.4,1106.0,185740.2,197792.3,220375.4,265761.3,189281.8,191553.9,188873.8,184530.9,0.0,0.0
4.4,1107.0,185758.3,197809.3,220387.9,265774.4,189296.1,191566.2,188888.7,184547.8,0.0,0.0
4.4,1108.0,185766.2,197813.7,220390.6,265772.0,189298.0,191566.4,188892.8,184548.2,0.0,0.0
4.4,1109.0,185747.6,197791.4,220371.1,265754.2,189280.1,191545.9,188873.0,184529.6,0.0,0.0
4.4,1110.0,185761.2,197805.4,220382.6,265765.8,189291.4,191556.6,188883.1,184540.4,0.0,0.0
4.4,1111.0,185768.5,197812.0,220388.3,265771.5,189299.2,191566.3,188891.6,184547.9,0.0,0.0
4.4,1112.0,185759.5,197805.5,220378.5,265759.6,189292.1,191558.8,188882.9,184540.6,0.0,0.0
4.4,1113.0,185753.0,197802.0,220371.1,265748.1,189287.2,191555.6,188879.1,184535.5,0.0,0.0
4.5,1114.0,185754.0,197803.3,220371.3,265745.7,189289.1,191559.3,188882.7,184535.9,0.0,0.0
4.5,1115.0,185759.4,197808.5,220374.6,265745.8,189294.1,191564.6,188885.0,184539.0,0.0,0.0
4.5,1116.0,185773.0,197818.8,220386.5,265765.5,189307.2,191575.1,188894.4,184551.4,0.0,0.0
4.5,1117.0,185767.6,197814.4,220380.7,265763.0,189304.3,191574.0,188892.9,184548.1,0.0,0.0
4.5,1118.0,185742.6,197790.8,220351.2,265715.2,189281.8,191553.9,188874.7,184528.8,0.0,0.0
4.5,1119.0,185747.6,197796.9,220354.9,265719.5,189288.3,191560.3,188882.5,184534.5,0.0,0.0
4.5,1120.0,185759.0,197809.3,220364.3,265725.9,189300.0,191573.5,188894.8,184545.2,0.0,0.0
4.5,1121.0,185761.0,197811.7,220364.0,265724.3,189300.8,191571.8,188893.3,184545.7,0.0,0.0
4.5,1122.0,185764.4,197813.0,220364.3,265723.2,189302.3,191574.4,188896.1,184548.8,0.0,0.0
4.5,1123.0,185760.1,197808.8,220357.0,265712.9,189295.1,191565.4,188888.7,184542.3,0.0,0.0
4.5,1124.0,185743.4,197790.9,220338.0,265695.5,189275.4,191540.5,188865.1,184523.9,0.0,0.0
4.5,1125.0,185731.5,197777.2,220323.2,265676.4,189260.7,191528.4,188850.1,184507.9,0.0,0.0
4.5,1126.0,185746.4,197792.0,220337.8,265690.2,189279.8,191550.2,188873.1,184529.2,0.0,0.0
4.5,1127.0,185769.2,197816.9,220357.6,265708.1,189302.8,191576.0,188900.8,184551.7,0.0,0.0
4.5,1128.0,185771.7,197818.8,220357.2,265704.9,189303.6,191577.1,188903.1,184552.0,0.0,0.0
4.5,1129.0,185765.3,197809.9,220349.6,265693.5,189299.2,191571.6,188897.8,184546.6,0.0,0.0
4.5,1130.0,185755.3,197802.6,220340.8,265685.3,189293.3,191563.9,188888.7,184541.0,0.0,0.0
4.5,1131.0,185749.8,197798.1,220332.7,265676.4,189286.7,191554.7,188878.8,184533.1,0.0,0.0
4.5,1132.0,185750.9,197795.0,220331.2,265674.8,189288.6,191556.1,188880.6,184534.0,0.0,0.0
4.5,1133.0,185762.5,197803.3,220339.8,265693.8,189298.5,191561.5,188888.6,184543.8,0.0,0.0
4.5,1134.0,185741.3,197792.0,220313.6,265638.7,189278.6,191548.6,188872.4,184523.1,0.0,0.0
4.5,1135.0,185741.9,197792.3,220312.7,265640.2,189279.8,191550.5,188871.5,184523.8,0.0,0.0
4.5,1136.0,185748.5,197794.3,220317.3,265648.7,189285.8,191556.5,188878.2,184533.9,0.0,0.0
4.5,1137.0,185763.8,197809.5,220331.1,265658.4,189299.9,191570.7,188893.1,184547.0,0.0,0.0
4.5,1138.0,185762.3,197807.9,220328.9,265650.6,189297.3,191567.2,188893.3,184543.5,0.0,0.0
4.6,1139.0,185762.4,197808.2,220327.3,265646.5,189294.2,191564.6,188890.6,184540.1,0.0,0.0
4.6,1140.0,185743.3,197790.1,220308.4,265624.6,189278.1,191552.0,188872.3,184523.8,0.0,0.0
4.6,1141.0,185731.0,197780.8,220296.6,265609.3,189270.1,191545.4,188863.1,184517.8,0.0,0.0
4.6,1142.0,185730.7,197782.8,220297.0,265610.2,189272.9,191545.2,188863.8,184519.6,0.0,0.0
4.6,1143.0,185744.4,197798.3,220309.9,265620.9,189287.3,191559.2,188878.1,184531.9,0.0,0.0
4.6,1144.0,185754.9,197809.5,220316.9,265620.4,189295.3,191568.4,188887.4,184537.7,0.0,0.0
4.6,1145.0,185768.2,197817.7,220325.0,265629.1,189302.6,191573.3,188892.4,184546.9,0.0,0.0
4.6,1146.0,185775.9,197817.2,220325.3,265635.6,189304.3,191574.0,188891.9,184550.1,0.0,0.0
4.6,1147.0,185767.1,197810.1,220309.7,265616.0,189294.0,191566.9,188883.6,184539.2,0.0,0.0
4.6,1148.0,185771.7,197811.0,220310.0,265622.2,189296.2,191567.1,188885.9,184542.3,0.0,0.0
4.6,1149.0,185747.3,197790.2,220283.0,265571.3,189274.4,191550.2,188871.6,184524.1,0.0,0.0
4.6,1150.0,185745.1,197788.2,220278.8,265560.0,189270.9,191546.8,188867.9,184518.2,0.0,0.0
4.6,1151.0,185767.0,197809.6,220299.7,265583.7,189290.2,191563.5,188882.5,184535.8,0.0,0.0
4.6,1152.0,185756.3,197798.6,220291.3,265575.5,189285.8,191560.8,188880.8,184534.8,0.0,0.0
4.6,1153.0,185748.3,197787.8,220281.2,265562.3,189276.7,191549.5,188871.4,184528.2,0.0,0.0
4.6,1154.0,185747.7,197791.2,220280.6,265560.5,189278.1,191552.7,188873.7,184526.5,0.0,0.0
4.6,1155.0,185750.1,197795.1,220281.0,265560.3,189282.7,191561.1,188879.6,184531.9,0.0,0.0
4.6,1156.0,185746.4,197794.8,220274.9,265552.9,189282.4,191563.3,188878.3,184531.6,0.0,0.0
4.6,1157.0,185739.2,197786.0,220265.4,265541.9,189275.8,191556.5,188871.5,184526.1,0.0,0.0
4.6,1158.0,185739.7,197787.4,220265.4,265540.0,189277.9,191557.4,188874.3,184528.5,0.0,0.0
4.6,1159.0,185740.1,197790.1,220266.7,265535.5,189281.3,191558.8,188878.9,184527.8,0.0,0.0
4.6,1160.0,185740.0,197791.4,220266.0,265530.8,189282.7,191561.5,188880.2,184525.6,0.0,0.0
4.6,1161.0,185736.7,197787.7,220261.4,265525.3,189281.4,191558.4,188878.1,184527.8,0.0,0.0
4.6,1162.0,185744.1,197792.6,220266.7,265528.1,189287.2,191560.7,188882.3,184534.8,0.0,0.0
4.6,1163.0,185754.4,197801.6,220275.2,265533.2,189293.9,191565.5,188886.8,184540.1,0.0,0.0
4.7,1164.0,185761.4,197809.6,220280.6,265534.3,189298.4,191568.8,188889.1,184542.2,0.0,0.0
4.7,1165.0,185770.1,197817.6,220286.8,265539.5,189306.9,191575.8,188897.8,184551.6,0.0,0.0
4.7,1166.0,185769.6,197809.6,220282.2,265540.3,189302.7,191571.8,188893.8,184544.5,0.0,0.0
4.7,1167.0,185770.1,197812.1,220282.3,265550.3,189303.3,191573.9,188893.2,184545.0,0.0,0.0
4.7,1168.0,185745.1,197791.7,220249.1,265479.8,189275.4,191555.7,188875.0,184519.7,0.0,0.0
4.7,1169.0,185751.6,197796.2,220252.8,265486.3,189279.0,191558.9,188879.9,184525.5,0.0,0.0
4.7,1170.0,185751.8,197799.4,220253.3,265490.0,189281.5,191561.7,188880.2,184528.8,0.0,0.0
4.7,1171.0,185746.6,197794.5,220247.8,265483.5,189278.1,191559.2,188877.0,184526.6,0.0,0.0
4.7,1172.0,185755.2,197802.9,220255.7,265489.6,189286.6,191566.8,188884.8,184535.4,0.0,0.0
4.7,1173.0,185761.5,197807.1,220260.6,265494.0,189293.7,191573.8,188893.0,184543.0,0.0,0.0
4.7,1174.0,185751.8,197796.7,220250.3,265481.7,189286.7,191565.7,188886.4,184536.6,0.0,0.0
4.7,1175.0,185745.1,197792.5,220241.8,265468.7,189280.4,191559.5,188878.9,184529.0,0.0,0.0
4.7,1176.0,185744.7,197792.6,220241.0,265469.0,189284.3,191561.5,188880.1,184533.1,0.0,0.0
4.7,1177.0,185750.7,197800.2,220245.9,265473.5,189291.0,191565.7,188884.4,184541.0,0.0,0.0
4.7,1178.0,185764.5,197810.2,220255.7,265481.9,189301.2,191574.9,188894.7,184551.1,0.0,0.0
4.7,1179.0,185761.0,197803.9,220247.0,265463.0,189291.6,191566.8,188886.2,184536.7,0.0,0.0
4.7,1180.0,185762.9,197805.0,220244.5,265458.3,189290.5,191567.1,188884.7,184535.4,0.0,0.0
4.7,1181.0,185757.4,197797.2,220237.4,265453.2,189285.4,191560.8,188877.7,184530.6,0.0,0.0
4.7,1182.0,185762.9,197802.9,220241.0,265454.8,189290.0,191565.7,188881.7,184535.6,0.0,0.0
4.7,1183.0,185772.0,197814.5,220248.6,265459.4,189299.8,191576.6,188892.3,184543.4,0.0,0.0
4.7,1184.0,185789.8,197831.2,220267.1,265486.2,189317.6,191590.7,188908.3,184560.2,0.0,0.0
4.7,1185.0,185772.1,197817.9,220246.6,265441.3,189302.4,191580.9,188898.5,184547.4,0.0,0.0
4.7,1186.0,185756.7,197804.5,220229.0,265416.0,189288.3,191570.2,188884.1,184533.1,0.0,0.0
4.7,1187.0,185753.4,197799.4,220224.1,265419.7,189284.5,191563.3,188878.8,184530.9,0.0,0.0
4.7,1188.0,185755.4,197802.9,220226.2,265426.7,189288.1,191565.8,188882.3,184536.1,0.0,0.0
4.8,1189.0,185760.3,197804.4,220229.3,265427.5,189293.8,191570.5,188889.6,184543.2,0.0,0.0
4.8,1190.0,185755.8,197801.7,220225.6,265427.0,189296.8,191571.9,188892.4,184549.1,0.0,0.0
4.8,1191.0,185758.0,197805.6,220227.7,265426.3,189301.1,191577.5,188894.9,184550.2,0.0,0.0
4.8,1192.0,185762.8,197811.8,220231.3,265424.6,189305.1,191581.0,188896.9,184550.7,0.0,0.0
4.8,1193.0,185766.3,197817.1,220234.3,265421.2,189307.6,191582.4,188898.7,184549.3,0.0,0.0
4.8,1194.0,185767.0,197817.2,220233.1,265413.2,189303.5,191575.9,188894.9,184543.1,0.0,0.0
4.8,1195.0,185763.5,197812.7,220226.9,265403.8,189297.9,191569.1,188888.9,184539.8,0.0,0.0
4.8,1196.0,185764.9,197810.3,220224.4,265400.9,189297.5,191569.2,188886.7,184539.1,0.0,0.0
4.8,1197.0,185769.2,197815.9,220226.7,265403.1,189302.6,191574.5,188891.1,184546.9,0.0,0.0
4.8,1198.0,185768.1,197821.0,220221.7,265389.4,189300.9,191575.1,188891.3,184542.9,0.0,0.0
4.8,1199.0,185753.5,197799.3,220204.6,265376.1,189286.9,191562.0,188879.8,184530.5,0.0,0.0
4.8,1200.0,185761.7,197802.7,220212.0,265397.8,189294.2,191569.1,188884.4,184537.3,0.0,0.0
4.8,1201.0,185757.5,197800.4,220202.1,265362.2,189290.0,191572.1,188887.0,184536.3,0.0,0.0
4.8,1202.0,185758.2,197803.6,220202.2,265359.7,189293.9,191575.8,188893.0,184542.3,0.0,0.0
4.8,1203.0,185765.3,197811.5,220209.0,265370.3,189301.9,191582.2,188900.5,184549.1,0.0,0.0
4.8,1204.0,185765.4,197812.4,220209.3,265368.9,189303.5,191583.8,188903.4,184550.8,0.0,0.0
4.8,1205.0,185758.7,197802.5,220198.9,265355.8,189293.4,191571.5,188892.4,184539.9,0.0,0.0
4.8,1206.0,185760.1,197803.7,220198.0,265355.8,189296.2,191571.3,188891.4,184542.8,0.0,0.0
4.8,1207.0,185758.9,197804.1,220196.8,265350.0,189296.5,191568.9,188890.9,184544.8,0.0,0.0
4.8,1208.0,185770.4,197817.7,220207.9,265364.3,189309.8,191579.1,188902.3,184558.4,0.0,0.0
4.8,1209.0,185756.5,197800.4,220189.6,265339.0,189293.2,191563.7,188886.9,184538.2,0.0,0.0
4.8,1210.0,185753.9,197796.2,220182.7,265328.9,189287.6,191559.7,188880.2,184528.8,0.0,0.0
4.8,1211.0,185764.2,197806.1,220190.4,265335.6,189296.8,191570.6,188887.8,184538.5,0.0,0.0
4.8,1212.0,185762.6,197805.0,220186.0,265327.1,189292.9,191566.8,188883.1,184537.9,0.0,0.0
4.8,1213.0,185757.9,197797.3,220178.3,265314.5,189285.8,191559.0,188876.2,184531.2,0.0,0.0
4.9,1214.0,185766.3,197808.7,220185.0,265314.9,189291.8,191565.9,188882.8,184534.8,0.0,0.0
4.9,1215.0,185774.6,197812.5,220190.7,265321.4,189300.9,191574.9,188894.0,184547.4,0.0,0.0
4.9,1216.0,185771.7,197813.2,220188.4,265320.9,189303.5,191580.6,188897.8,184551.0,0.0,0.0
4.9,1217.0,185768.4,197820.2,220186.6,265315.3,189305.1,191585.9,188899.6,184551.1,0.0,0.0
4.9,1218.0,185754.1,197805.9,220171.9,265297.8,189291.2,191569.8,188884.5,184535.3,0.0,0.0
4.9,1219.0,185751.6,197803.5,220167.7,265289.3,189288.1,191565.1,188881.0,184530.8,0.0,0.0
4.9,1220.0,185755.0,197803.7,220170.2,265290.1,189292.3,191569.0,188886.2,184538.8,0.0,0.0
4.9,1221.0,185756.9,197801.0,220170.6,265295.0,189292.1,191565.9,188882.8,184538.5,0.0,0.0
4.9,1222.0,185765.8,197807.7,220177.5,265308.9,189299.9,191570.6,188887.8,184546.6,0.0,0.0
4.9,1223.0,185765.3,197807.2,220169.3,265267.6,189297.5,191575.5,188893.5,184541.7,0.0,0.0
4.9,1224.0,185771.3,197812.7,220173.1,265272.6,189301.1,191578.1,188897.8,184541.9,0.0,0.0
4.9,1225.0,185774.4,197814.3,220176.2,265282.2,189303.1,191577.2,188896.0,184543.9,0.0,0.0
4.9,1226.0,185773.7,197812.3,220173.0,265278.6,189299.7,191573.7,188889.5,184540.8,0.0,0.0
4.9,1227.0,185763.8,197807.8,220163.0,265264.6,189292.8,191567.5,188881.4,184534.9,0.0,0.0
4.9,1228.0,185755.8,197801.7,220153.3,265254.5,189286.7,191561.0,188875.4,184528.3,0.0,0.0
4.9,1229.0,185758.1,197803.9,220153.1,265252.2,189288.1,191562.9,188878.5,184529.1,0.0,0.0
4.9,1230.0,185765.2,197809.7,220157.0,265252.5,189294.0,191568.9,188885.7,184535.8,0.0,0.0
4.9,1231.0,185770.1,197817.5,220160.9,265252.5,189298.4,191575.1,188887.1,184539.9,0.0,0.0
4.9,1232.0,185763.4,197803.8,220151.5,265245.6,189291.6,191568.8,188883.5,184538.4,0.0,0.0
4.9,1233.0,185762.1,197801.2,220147.2,265235.1,189287.4,191565.5,188881.4,184534.9,0.0,0.0
4.9,1234.0,185759.8,197795.6,220140.8,265223.9,189281.1,191558.7,188877.0,184531.6,0.0,0.0
4.9,1235.0,185768.9,197804.6,220144.9,265228.9,189289.0,191567.8,188885.3,184540.6,0.0,0.0
4.9,1236.0,185778.6,197815.0,220152.3,265236.2,189299.3,191581.1,188896.7,184549.7,0.0,0.0
4.9,1237.0,185783.5,197826.1,220156.0,265235.7,189306.6,191590.2,188902.8,184554.2,0.0,0.0
4.9,1238.0,185781.6,197817.9,220153.8,265245.8,189304.7,191581.0,188897.4,184552.6,0.0,0.0
5.0,1239.0,185766.4,197807.7,220137.4,265216.1,189290.8,191569.2,188885.6,184539.2,0.0,0.0
5.0,1240.0,185750.1,197795.0,220117.9,265179.0,189278.0,191560.2,188874.7,184525.7,0.0,0.0
5.0,1241.0,185748.0,197790.4,220116.9,265186.8,189281.0,191561.6,188875.0,184527.9,0.0,0.0
5.0,1242.0,185745.2,197791.1,220114.4,265180.9,189280.2,191561.6,188873.1,184526.4,0.0,0.0
5.0,1243.0,185752.2,197798.5,220121.4,265193.4,189288.8,191567.3,188880.1,184535.6,0.0,0.0
5.0,1244.0,185762.0,197809.0,220128.1,265193.6,189296.2,191574.0,188889.0,184539.8,0.0,0.0
5.0,1245.0,185768.7,197814.4,220130.4,265193.7,189299.5,191576.5,188890.8,184541.9,0.0,0.0
5.0,1246.0,185761.2,197801.4,220121.1,265187.8,189292.8,191569.6,188884.1,184540.3,0.0,0.0
5.0,1247.0,185761.1,197799.6,220118.4,265183.2,189289.2,191566.2,188879.9,184534.4,0.0,0.0
5.0,1248.0,185763.6,197806.4,220120.2,265176.4,189290.6,191571.1,188882.2,184532.5,0.0,0.0
5.0,1249.0,185781.0,197826.6,220136.2,265184.1,189308.7,191592.4,188903.3,184550.8,0.0,0.0
5.0,1250.0,185778.0,197820.4,220130.1,265174.9,189302.6,191584.3,188897.2,184544.4,0.0,0.0
5.0,1251.0,185766.0,197810.6,220118.2,265164.8,189294.5,191577.4,188888.7,184539.0,0.0,0.0
5.0,1252.0,185765.0,197805.2,220112.9,265161.8,189291.1,191572.0,188884.0,184539.7,0.0,0.0
5.0,1253.0,185761.9,197803.2,220110.7,265156.2,189292.1,191572.8,188886.8,184540.6,0.0,0.0
5.0,1254.0,185772.3,197812.3,220123.6,265178.9,189305.1,191581.6,188896.3,184549.1,0.0,0.0
5.0,1255.0,185758.7,197801.4,220104.3,265141.2,189290.5,191570.0,188883.5,184536.4,0.0,0.0
5.0,1256.0,185764.1,197806.1,220102.3,265132.8,189292.1,191574.8,188886.9,184540.7,0.0,0.0
5.0,1257.0,185779.8,197816.0,220113.0,265150.1,189304.3,191587.6,188900.0,184553.3,0.0,0.0
5.0,1258.0,185772.9,197811.0,220104.2,265137.1,189299.1,191584.5,188897.6,184548.2,0.0,0.0
5.0,1259.0,185769.5,197810.6,220100.7,265137.0,189298.2,191581.6,188896.1,184549.0,0.0,0.0
5.0,1260.0,185763.6,197806.8,220093.1,265124.1,189289.7,191574.5,188886.0,184538.1,0.0,0.0
5.0,1261.0,185767.0,197808.7,220094.6,265125.8,189293.3,191579.6,188889.1,184542.3,0.0,0.0
5.0,1262.0,185763.7,197803.4,220090.8,265117.0,189290.7,191580.0,188888.2,184540.6,0.0,0.0
5.0,1263.0,185767.0,197804.7,220092.2,265115.0,189291.1,191580.1,188889.9,184539.5,0.0,0.0
5.1,1264.0,185758.1,197793.1,220081.3,265102.1,189280.5,191568.9,188879.3,184528.1,0.0,0.0
5.1,1265.0,185747.7,197782.5,220069.5,265090.4,189270.8,191556.5,188868.3,184519.7,0.0,0.0
5.1,1266.0,185750.7,197788.1,220072.6,265092.5,189278.1,191562.4,188874.3,184526.9,0.0,0.0
5.1,1267.0,185755.3,197795.4,220078.0,265097.9,189288.0,191571.9,188883.8,184539.2,0.0,0.0
5.1,1268.0,185758.6,197800.2,220079.4,265094.3,189291.9,191578.4,188890.6,184542.6,0.0,0.0
5.1,1269.0,185760.5,197797.6,220078.9,265098.8,189291.5,191575.3,188888.0,184539.6,0.0,0.0
5.1,1270.0,185767.5,197801.0,220084.2,265106.6,189299.1,191580.6,188894.3,184550.4,0.0,0.0
5.1,1271.0,185753.2,197790.9,220064.2,265059.3,189287.0,191575.3,188886.9,184542.1,0.0,0.0
5.1,1272.0,185751.6,197785.3,220059.6,265059.5,189283.2,191568.2,188879.2,184533.4,0.0,0.0
5.1,1273.0,185756.8,197790.9,220063.1,265063.9,189288.3,191573.5,188885.5,184537.7,0.0,0.0
5.1,1274.0,185764.5,197799.3,220070.4,265072.7,189296.2,191580.9,188894.3,184543.2,0.0,0.0
5.1,1275.0,185761.6,197797.4,220067.3,265069.4,189295.3,191580.9,188894.1,184544.0,0.0,0.0
5.1,1276.0,185757.4,197789.0,220061.1,265063.0,189291.3,191577.5,188890.4,184543.5,0.0,0.0
5.1,1277.0,185761.9,197798.7,220064.3,265065.2,189296.0,191584.0,188894.7,184548.3,0.0,0.0
5.1,1278.0,185772.6,197812.4,220072.3,265069.9,189306.1,191595.0,188905.9,184555.8,0.0,0.0
5.1,1279.0,185766.2,197812.3,220065.4,265055.9,189302.2,191592.6,188903.1,184550.3,0.0,0.0
5.1,1280.0,185758.7,197800.8,220057.5,265049.5,189296.8,191585.8,188897.9,184545.9,0.0,0.0
5.1,1281.0,185757.4,197796.2,220052.8,265042.5,189292.1,191581.0,188892.7,184543.2,0.0,0.0
5.1,1282.0,185758.1,197795.7,220048.5,265035.4,189289.1,191577.2,188888.7,184540.2,0.0,0.0
5.1,1283.0,185750.9,197789.3,220038.5,265023.1,189282.5,191571.2,188883.2,184532.9,0.0,0.0
5.1,1284.0,185758.9,197798.2,220044.7,265026.5,189290.1,191579.5,188891.6,184539.4,0.0,0.0
5.1,1285.0,185765.5,197803.6,220050.4,265031.2,189297.7,191585.2,188896.6,184545.9,0.0,0.0
5.1,1286.0,185767.7,197805.2,220050.0,265027.5,189297.5,191583.9,188893.2,184544.0,0.0,0.0
5.1,1287.0,185766.3,197802.7,220044.5,265022.8,189295.1,191582.3,188891.5,184544.1,0.0,0.0
5.1,1288.0,185760.6,197795.9,220036.7,265016.0,189288.3,191574.0,188883.2,184537.9,0.0,0.0
5.2,1289.0,185764.4,197797.8,220042.2,265029.1,189293.0,191574.7,188884.0,184540.2,0.0,0.0
5.2,1290.0,185758.0,197795.1,220032.4,264996.8,189287.1,191574.3,188883.6,184534.8,0.0,0.0
5.2,1291.0,185765.8,197805.2,220036.7,264993.4,189295.4,191584.3,188893.1,184544.5,0.0,0.0
5.2,1292.0,185780.3,197819.4,220051.6,265013.8,189311.0,191601.3,188909.3,184559.8,0.0,0.0
5.2,1293.0,185799.7,197841.3,220068.2,265030.2,189330.7,191622.0,188930.3,184577.9,0.0,0.0
5.2,1294.0,185808.9,197851.3,220073.8,265031.6,189338.4,191630.9,188938.1,184584.6,0.0,0.0
5.2,1295.0,185801.8,197839.7,220061.1,265018.3,189328.7,191620.0,188927.8,184576.9,0.0,0.0
5.2,1296.0,185794.8,197833.5,220050.1,265008.0,189321.3,191615.2,188921.0,184572.3,0.0,0.0
5.2,1297.0,185787.2,197824.0,220040.2,264996.1,189314.7,191610.7,188915.7,184565.7,0.0,0.0
5.2,1298.0,185789.5,197824.8,220038.9,264993.8,189313.4,191603.3,188912.3,184565.3,0.0,0.0
5.2,1299.0,185783.9,197814.8,220030.8,264982.9,189304.0,191590.7,188902.5,184556.9,0.0,0.0
5.2,1300.0,185784.4,197811.2,220029.4,264978.9,189303.6,191591.1,188900.3,184554.0,0.0,0.0
5.2,1301.0,185786.5,197809.8,220026.5,264970.9,189301.8,191588.3,188896.2,184550.6,0.0,0.0
5.2,1302.0,185795.7,197813.0,220029.3,264972.0,189304.2,191587.4,188896.9,184553.3,0.0,0.0
5.2,1303.0,185799.1,197818.7,220030.7,264969.6,189306.8,191592.1,188900.8,184554.4,0.0,0.0
5.2,1304.0,185795.6,197813.1,220027.7,264973.5,189304.5,191586.5,188896.4,184550.5,0.0,0.0
5.2,1305.0,185782.0,197796.5,220010.8,264955.7,189287.4,191567.7,188878.0,184533.4,0.0,0.0
5.2,1306.0,185753.1,197768.5,219974.2,264893.5,189255.3,191541.8,188852.7,184506.9,0.0,0.0
5.2,1307.0,185782.7,197795.2,220001.4,264933.3,189284.1,191567.8,188880.1,184537.6,0.0,0.0
5.2,1308.0,185823.7,197837.3,220038.9,264966.8,189323.5,191606.9,188919.4,184570.4,0.0,0.0
5.2,1309.0,185826.2,197838.1,220040.1,264962.2,189326.4,191610.4,188923.2,184571.0,0.0,0.0
5.2,1310.0,185822.0,197836.7,220035.0,264954.4,189321.8,191608.8,188917.0,184562.6,0.0,0.0
5.2,1311.0,185809.5,197818.7,220019.4,264945.3,189310.2,191596.6,188906.5,184556.5,0.0,0.0
5.2,1312.0,185821.0,197838.2,220030.3,264948.3,189323.8,191610.8,188917.3,184566.8,0.0,0.0
5.2,1313.0,185826.9,197848.4,220034.2,264947.6,189329.7,191619.8,188925.4,184573.2,0.0,0.0
5.3,1314.0,185818.5,197831.5,220019.9,264930.0,189314.6,191603.2,188910.1,184557.7,0.0,0.0
5.3,1315.0,185812.6,197825.4,220013.3,264926.8,189309.8,191596.6,188905.2,184556.0,0.0,0.0
5.3,1316.0,185815.0,197826.0,220013.8,264926.7,189311.6,191597.2,188905.7,184557.8,0.0,0.0
5.3,1317.0,185820.9,197832.0,220018.0,264927.5,189319.6,191606.1,188912.8,184566.2,0.0,0.0
5.3,1318.0,185820.1,197834.8,220018.7,264923.5,189323.0,191609.8,188917.5,184569.6,0.0,0.0
5.3,1319.0,185813.7,197830.8,220011.5,264908.2,189316.9,191602.4,188911.0,184561.1,0.0,0.0
5.3,1320.0,185815.6,197828.2,220010.3,264911.4,189314.0,191595.8,188905.3,184560.5,0.0,0.0
5.3,1321.0,185823.6,197828.9,220016.4,264929.7,189316.4,191593.4,188902.1,184565.1,0.0,0.0
5.3,1322.0,185810.4,197821.1,219998.2,264884.1,189301.1,191584.2,188892.5,184551.2,0.0,0.0
5.3,1323.0,185797.4,197807.7,219986.5,264872.3,189293.5,191578.2,188888.4,184542.8,0.0,0.0
5.3,1324.0,185802.1,197813.3,219992.0,264879.9,189300.4,191582.7,188893.8,184545.7,0.0,0.0
5.3,1325.0,185817.3,197829.9,220005.9,264893.7,189316.7,191602.0,188910.5,184561.4,0.0,0.0
5.3,1326.0,185817.0,197833.9,220005.2,264894.9,189319.4,191606.5,188912.1,184565.1,0.0,0.0
5.3,1327.0,185814.4,197830.0,220001.6,264890.2,189318.3,191606.6,188911.5,184566.0,0.0,0.0
5.3,1328.0,185811.8,197832.9,219998.7,264880.4,189317.2,191607.1,188908.9,184560.7,0.0,0.0
5.3,1329.0,185809.0,197836.9,219996.1,264874.4,189316.9,191606.8,188906.8,184557.3,0.0,0.0
